,wavenumber,absorbance
0,7496.94889,-0.01591
1,7495.02016,-0.00531
2,7493.09144,0.00059
3,7491.16272,0.00173
4,7489.23399,0.00359
5,7487.30527,0.00765
6,7485.37654,0.00822
7,7483.44782,0.00335
8,7481.5191,-0.0026
9,7479.59037,-0.00669
10,7477.66165,-0.00678
11,7475.73293,-0.00266
12,7473.8042,0.00121
13,7471.87548,0.0036
14,7469.94676,0.00599
15,7468.01803,0.00606
16,7466.08931,0.00312
17,7464.16058,0.00082
18,7462.23186,-4e-05
19,7460.30314,-0.00323
20,7458.37441,-0.00879
21,7456.44569,-0.00927
22,7454.51697,-0.00166
23,7452.58824,0.00512
24,7450.65952,0.00541
25,7448.73079,0.00391
26,7446.80207,0.00388
27,7444.87335,0.00425
28,7442.94462,0.00375
29,7441.0159,0.00143
30,7439.08718,-0.00166
31,7437.15845,-0.0033
32,7435.22973,-0.00158
33,7433.30101,0.00287
34,7431.37228,0.00423
35,7429.44356,-5e-05
36,7427.51483,-0.00373
37,7425.58611,-0.00269
38,7423.65739,0.00136
39,7421.72866,0.00525
40,7419.79994,0.00488
41,7417.87122,0.00183
42,7415.94249,0.00294
43,7414.01377,0.00792
44,7412.08505,0.01079
45,7410.15632,0.01003
46,7408.2276,0.00679
47,7406.29887,0.00182
48,7404.37015,-0.00122
49,7402.44143,-0.00055
50,7400.5127,0.00036
51,7398.58398,0.00015
52,7396.65526,0.00017
53,7394.72653,0.00048
54,7392.79781,0.00109
55,7390.86908,0.00149
56,7388.94036,0.00191
57,7387.01164,0.0052
58,7385.08291,0.01184
59,7383.15419,0.01696
60,7381.22547,0.01652
61,7379.29674,0.01274
62,7377.36802,0.01085
63,7375.4393,0.01157
64,7373.51057,0.0112
65,7371.58185,0.00881
66,7369.65312,0.00435
67,7367.7244,-0.00282
68,7365.79568,-0.00731
69,7363.86695,-0.00459
70,7361.93823,0.00053
71,7360.00951,0.00353
72,7358.08078,0.00438
73,7356.15206,0.0025
74,7354.22334,-0.00094
75,7352.29461,-0.00201
76,7350.36589,0.00121
77,7348.43716,0.00718
78,7346.50844,0.01186
79,7344.57972,0.01259
80,7342.65099,0.01033
81,7340.72227,0.00587
82,7338.79355,0.00115
83,7336.86482,-0.0003
84,7334.9361,0.00235
85,7333.00737,0.00699
86,7331.07865,0.00838
87,7329.14993,0.00368
88,7327.2212,-0.0015
89,7325.29248,-0.00179
90,7323.36376,0.00115
91,7321.43503,0.00351
92,7319.50631,0.00342
93,7317.57759,0.00252
94,7315.64886,0.0021
95,7313.72014,0.00195
96,7311.79141,0.00333
97,7309.86269,0.0058
98,7307.93397,0.00647
99,7306.00524,0.00621
100,7304.07652,0.0062
101,7302.1478,0.00409
102,7300.21907,-8e-05
103,7298.29035,-0.00359
104,7296.36163,-0.00507
105,7294.4329,-0.00301
106,7292.50418,0.00304
107,7290.57545,0.00828
108,7288.64673,0.00936
109,7286.71801,0.00863
110,7284.78928,0.00709
111,7282.86056,0.00462
112,7280.93184,0.004
113,7279.00311,0.00735
114,7277.07439,0.01141
115,7275.14566,0.01121
116,7273.21694,0.00767
117,7271.28822,0.0067
118,7269.35949,0.01001
119,7267.43077,0.01397
120,7265.50205,0.01534
121,7263.57332,0.01305
122,7261.6446,0.00826
123,7259.71588,0.00341
124,7257.78715,0.00073
125,7255.85843,0.00157
126,7253.9297,0.0035
127,7252.00098,0.00314
128,7250.07226,0.00216
129,7248.14353,0.00296
130,7246.21481,0.00312
131,7244.28609,0.00055
132,7242.35736,-0.00133
133,7240.42864,-0.00038
134,7238.49992,0.00107
135,7236.57119,0.00298
136,7234.64247,0.00608
137,7232.71374,0.00754
138,7230.78502,0.00531
139,7228.8563,0.0023
140,7226.92757,0.0019
141,7224.99885,0.00468
142,7223.07013,0.00924
143,7221.1414,0.01334
144,7219.21268,0.01593
145,7217.28396,0.01655
146,7215.35523,0.01343
147,7213.42651,0.00673
148,7211.49778,-9e-05
149,7209.56906,-0.00404
150,7207.64034,-0.00579
151,7205.71161,-0.00765
152,7203.78289,-0.00917
153,7201.85417,-0.00884
154,7199.92544,-0.00826
155,7197.99672,-0.00834
156,7196.06799,-0.0073
157,7194.13927,-0.00449
158,7192.21055,-0.00148
159,7190.28182,-0.00093
160,7188.3531,-0.00251
161,7186.42438,-0.00144
162,7184.49565,0.00306
163,7182.56693,0.00543
164,7180.63821,0.00327
165,7178.70948,0.00055
166,7176.78076,0.00016
167,7174.85203,7e-05
168,7172.92331,-0.00114
169,7170.99459,-0.00101
170,7169.06586,0.00081
171,7167.13714,0.00149
172,7165.20842,0.00017
173,7163.27969,-0.00149
174,7161.35097,-0.00144
175,7159.42225,0.00048
176,7157.49352,0.00138
177,7155.5648,-0.00023
178,7153.63607,-0.00335
179,7151.70735,-0.00717
180,7149.77863,-0.00929
181,7147.8499,-0.00657
182,7145.92118,-0.0011
183,7143.99246,0.00193
184,7142.06373,0.00074
185,7140.13501,-0.00299
186,7138.20628,-0.00617
187,7136.27756,-0.00796
188,7134.34884,-0.00965
189,7132.42011,-0.01033
190,7130.49139,-0.00852
191,7128.56267,-0.00596
192,7126.63394,-0.00571
193,7124.70522,-0.0065
194,7122.7765,-0.00346
195,7120.84777,0.00277
196,7118.91905,0.00344
197,7116.99032,-0.00488
198,7115.0616,-0.0128
199,7113.13288,-0.0129
200,7111.20415,-0.00877
201,7109.27543,-0.00481
202,7107.34671,-0.00027
203,7105.41798,0.00318
204,7103.48926,0.00141
205,7101.56054,-0.00374
206,7099.63181,-0.00709
207,7097.70309,-0.00673
208,7095.77436,-0.00449
209,7093.84564,-0.00346
210,7091.91692,-0.0045
211,7089.98819,-0.00542
212,7088.05947,-0.00541
213,7086.13075,-0.00543
214,7084.20202,-0.00582
215,7082.2733,-0.00788
216,7080.34457,-0.01102
217,7078.41585,-0.01194
218,7076.48713,-0.01028
219,7074.5584,-0.00847
220,7072.62968,-0.00831
221,7070.70096,-0.00909
222,7068.77223,-0.00843
223,7066.84351,-0.00595
224,7064.91479,-0.00395
225,7062.98606,-0.00361
226,7061.05734,-0.00341
227,7059.12861,-0.00254
228,7057.19989,-0.00209
229,7055.27117,-0.00333
230,7053.34244,-0.00562
231,7051.41372,-0.00684
232,7049.485,-0.00744
233,7047.55627,-0.00993
234,7045.62755,-0.01307
235,7043.69883,-0.01342
236,7041.7701,-0.01162
237,7039.84138,-0.01012
238,7037.91265,-0.00962
239,7035.98393,-0.00984
240,7034.05521,-0.00936
241,7032.12648,-0.00912
242,7030.19776,-0.0114
243,7028.26904,-0.01322
244,7026.34031,-0.01124
245,7024.41159,-0.00734
246,7022.48286,-0.00454
247,7020.55414,-0.0045
248,7018.62542,-0.007
249,7016.69669,-0.01017
250,7014.76797,-0.01244
251,7012.83925,-0.01189
252,7010.91052,-0.00883
253,7008.9818,-0.00707
254,7007.05308,-0.00644
255,7005.12435,-0.00433
256,7003.19563,-0.00397
257,7001.2669,-0.00801
258,6999.33818,-0.01119
259,6997.40946,-0.00959
260,6995.48073,-0.00742
261,6993.55201,-0.007
262,6991.62329,-0.00501
263,6989.69456,-0.00259
264,6987.76584,-0.00395
265,6985.83712,-0.00688
266,6983.90839,-0.00756
267,6981.97967,-0.00744
268,6980.05094,-0.00789
269,6978.12222,-0.00776
270,6976.1935,-0.00736
271,6974.26477,-0.0069
272,6972.33605,-0.00541
273,6970.40733,-0.00355
274,6968.4786,-0.00306
275,6966.54988,-0.00452
276,6964.62115,-0.00584
277,6962.69243,-0.00467
278,6960.76371,-0.0026
279,6958.83498,-0.00218
280,6956.90626,-0.00333
281,6954.97754,-0.00494
282,6953.04881,-0.0067
283,6951.12009,-0.0088
284,6949.19137,-0.00986
285,6947.26264,-0.00829
286,6945.33392,-0.00533
287,6943.40519,-0.00334
288,6941.47647,-0.00274
289,6939.54775,-0.00296
290,6937.61902,-0.00368
291,6935.6903,-0.0041
292,6933.76158,-0.00352
293,6931.83285,-0.00217
294,6929.90413,-0.00121
295,6927.97541,-0.00166
296,6926.04668,-0.00294
297,6924.11796,-0.00385
298,6922.18923,-0.00438
299,6920.26051,-0.005
300,6918.33179,-0.00607
301,6916.40306,-0.0074
302,6914.47434,-0.00746
303,6912.54562,-0.0058
304,6910.61689,-0.00446
305,6908.68817,-0.00498
306,6906.75944,-0.00585
307,6904.83072,-0.00484
308,6902.902,-0.00322
309,6900.97327,-0.00282
310,6899.04455,-0.00253
311,6897.11583,-0.00241
312,6895.1871,-0.0039
313,6893.25838,-0.00554
314,6891.32966,-0.0055
315,6889.40093,-0.00497
316,6887.47221,-0.00492
317,6885.54348,-0.00527
318,6883.61476,-0.00679
319,6881.68604,-0.00886
320,6879.75731,-0.00968
321,6877.82859,-0.00904
322,6875.89987,-0.00715
323,6873.97114,-0.00482
324,6872.04242,-0.00408
325,6870.1137,-0.00469
326,6868.18497,-0.00446
327,6866.25625,-0.00336
328,6864.32752,-0.00263
329,6862.3988,-0.00309
330,6860.47008,-0.00428
331,6858.54135,-0.00438
332,6856.61263,-0.00371
333,6854.68391,-0.00462
334,6852.75518,-0.00684
335,6850.82646,-0.00754
336,6848.89773,-0.00704
337,6846.96901,-0.00751
338,6845.04029,-0.00784
339,6843.11156,-0.00603
340,6841.18284,-0.004
341,6839.25412,-0.00439
342,6837.32539,-0.00579
343,6835.39667,-0.00494
344,6833.46795,-0.00312
345,6831.53922,-0.00237
346,6829.6105,-0.00289
347,6827.68177,-0.00518
348,6825.75305,-0.00794
349,6823.82433,-0.00923
350,6821.8956,-0.00879
351,6819.96688,-0.00805
352,6818.03816,-0.0072
353,6816.10943,-0.00404
354,6814.18071,-0.00022
355,6812.25199,0.00047
356,6810.32326,-0.001
357,6808.39454,-0.00222
358,6806.46581,-0.00391
359,6804.53709,-0.0068
360,6802.60837,-0.00795
361,6800.67964,-0.00489
362,6798.75092,-0.00084
363,6796.8222,-0.00025
364,6794.89347,-0.00315
365,6792.96475,-0.00722
366,6791.03603,-0.0094
367,6789.1073,-0.00791
368,6787.17858,-0.00566
369,6785.24985,-0.00557
370,6783.32113,-0.00598
371,6781.39241,-0.0048
372,6779.46368,-0.00352
373,6777.53496,-0.00421
374,6775.60624,-0.00548
375,6773.67751,-0.00547
376,6771.74879,-0.00511
377,6769.82006,-0.00626
378,6767.89134,-0.00838
379,6765.96262,-0.00796
380,6764.03389,-0.00497
381,6762.10517,-0.0036
382,6760.17645,-0.00458
383,6758.24772,-0.00576
384,6756.319,-0.00656
385,6754.39028,-0.00686
386,6752.46155,-0.00621
387,6750.53283,-0.00532
388,6748.6041,-0.00525
389,6746.67538,-0.00724
390,6744.74666,-0.01062
391,6742.81793,-0.01155
392,6740.88921,-0.00973
393,6738.96049,-0.00818
394,6737.03176,-0.00668
395,6735.10304,-0.00454
396,6733.17432,-0.00347
397,6731.24559,-0.00419
398,6729.31687,-0.00483
399,6727.38814,-0.00418
400,6725.45942,-0.00258
401,6723.5307,-0.00119
402,6721.60197,-0.00227
403,6719.67325,-0.00477
404,6717.74453,-0.00511
405,6715.8158,-0.00374
406,6713.88708,-0.00268
407,6711.95835,-0.001
408,6710.02963,0.00129
409,6708.10091,0.00183
410,6706.17218,-0.00024
411,6704.24346,-0.00276
412,6702.31474,-0.00281
413,6700.38601,-0.00148
414,6698.45729,-0.00228
415,6696.52857,-0.00505
416,6694.59984,-0.00743
417,6692.67112,-0.00788
418,6690.74239,-0.00622
419,6688.81367,-0.0046
420,6686.88495,-0.00499
421,6684.95622,-0.00692
422,6683.0275,-0.00875
423,6681.09878,-0.00917
424,6679.17005,-0.0079
425,6677.24133,-0.00639
426,6675.31261,-0.00676
427,6673.38388,-0.00886
428,6671.45516,-0.00998
429,6669.52643,-0.00817
430,6667.59771,-0.00546
431,6665.66899,-0.00477
432,6663.74026,-0.00452
433,6661.81154,-0.00256
434,6659.88282,-0.00068
435,6657.95409,-0.0011
436,6656.02537,-0.00348
437,6654.09664,-0.00517
438,6652.16792,-0.00438
439,6650.2392,-0.00334
440,6648.31047,-0.004
441,6646.38175,-0.00497
442,6644.45303,-0.00515
443,6642.5243,-0.00505
444,6640.59558,-0.00514
445,6638.66686,-0.00542
446,6636.73813,-0.00632
447,6634.80941,-0.00737
448,6632.88068,-0.0072
449,6630.95196,-0.00665
450,6629.02324,-0.0068
451,6627.09451,-0.00664
452,6625.16579,-0.00563
453,6623.23707,-0.00448
454,6621.30834,-0.0044
455,6619.37962,-0.00558
456,6617.4509,-0.00661
457,6615.52217,-0.00631
458,6613.59345,-0.00582
459,6611.66472,-0.00681
460,6609.736,-0.00797
461,6607.80728,-0.00702
462,6605.87855,-0.0052
463,6603.94983,-0.00513
464,6602.02111,-0.00646
465,6600.09238,-0.00647
466,6598.16366,-0.00408
467,6596.23493,-0.00172
468,6594.30621,-0.00175
469,6592.37749,-0.00302
470,6590.44876,-0.00341
471,6588.52004,-0.00362
472,6586.59132,-0.0049
473,6584.66259,-0.00594
474,6582.73387,-0.00597
475,6580.80515,-0.00584
476,6578.87642,-0.00533
477,6576.9477,-0.00391
478,6575.01897,-0.00227
479,6573.09025,-0.00131
480,6571.16153,-0.00131
481,6569.2328,-0.00286
482,6567.30408,-0.00566
483,6565.37536,-0.00771
484,6563.44663,-0.00793
485,6561.51791,-0.00655
486,6559.58919,-0.00426
487,6557.66046,-0.00235
488,6555.73174,-0.00208
489,6553.80301,-0.00335
490,6551.87429,-0.00461
491,6549.94557,-0.00532
492,6548.01684,-0.00572
493,6546.08812,-0.00528
494,6544.1594,-0.00433
495,6542.23067,-0.00366
496,6540.30195,-0.0032
497,6538.37322,-0.00353
498,6536.4445,-0.00509
499,6534.51578,-0.00628
500,6532.58705,-0.00575
501,6530.65833,-0.00458
502,6528.72961,-0.00489
503,6526.80088,-0.00662
504,6524.87216,-0.00786
505,6522.94344,-0.00829
506,6521.01471,-0.00833
507,6519.08599,-0.00798
508,6517.15726,-0.00693
509,6515.22854,-0.00517
510,6513.29982,-0.00404
511,6511.37109,-0.00444
512,6509.44237,-0.00587
513,6507.51365,-0.00693
514,6505.58492,-0.00678
515,6503.6562,-0.0068
516,6501.72748,-0.00835
517,6499.79875,-0.01039
518,6497.87003,-0.01099
519,6495.9413,-0.00973
520,6494.01258,-0.00804
521,6492.08386,-0.00735
522,6490.15513,-0.00765
523,6488.22641,-0.00782
524,6486.29769,-0.00696
525,6484.36896,-0.00539
526,6482.44024,-0.00495
527,6480.51151,-0.00641
528,6478.58279,-0.00766
529,6476.65407,-0.00786
530,6474.72534,-0.00824
531,6472.79662,-0.00838
532,6470.8679,-0.00803
533,6468.93917,-0.00782
534,6467.01045,-0.0079
535,6465.08173,-0.00861
536,6463.153,-0.00898
537,6461.22428,-0.00846
538,6459.29555,-0.00851
539,6457.36683,-0.00934
540,6455.43811,-0.01013
541,6453.50938,-0.01009
542,6451.58066,-0.00871
543,6449.65194,-0.00691
544,6447.72321,-0.00621
545,6445.79449,-0.00712
546,6443.86577,-0.00819
547,6441.93704,-0.00836
548,6440.00832,-0.00874
549,6438.07959,-0.00911
550,6436.15087,-0.00862
551,6434.22215,-0.0073
552,6432.29342,-0.00519
553,6430.3647,-0.00389
554,6428.43598,-0.00445
555,6426.50725,-0.00595
556,6424.57853,-0.00832
557,6422.6498,-0.01041
558,6420.72108,-0.01008
559,6418.79236,-0.00803
560,6416.86363,-0.00652
561,6414.93491,-0.0061
562,6413.00619,-0.00542
563,6411.07746,-0.00393
564,6409.14874,-0.00348
565,6407.22002,-0.00465
566,6405.29129,-0.00527
567,6403.36257,-0.00535
568,6401.43384,-0.00652
569,6399.50512,-0.00719
570,6397.5764,-0.00535
571,6395.64767,-0.00426
572,6393.71895,-0.00691
573,6391.79023,-0.00922
574,6389.8615,-0.00786
575,6387.93278,-0.00607
576,6386.00406,-0.00645
577,6384.07533,-0.00737
578,6382.14661,-0.00694
579,6380.21788,-0.00549
580,6378.28916,-0.00433
581,6376.36044,-0.00412
582,6374.43171,-0.00479
583,6372.50299,-0.00589
584,6370.57427,-0.00684
585,6368.64554,-0.00705
586,6366.71682,-0.00597
587,6364.7881,-0.00376
588,6362.85937,-0.002
589,6360.93065,-0.00162
590,6359.00192,-0.00208
591,6357.0732,-0.00404
592,6355.14448,-0.00804
593,6353.21575,-0.01144
594,6351.28703,-0.01146
595,6349.35831,-0.00907
596,6347.42958,-0.00707
597,6345.50086,-0.00662
598,6343.57213,-0.00677
599,6341.64341,-0.00611
600,6339.71469,-0.00497
601,6337.78596,-0.00442
602,6335.85724,-0.00498
603,6333.92852,-0.00626
604,6331.99979,-0.00595
605,6330.07107,-0.00363
606,6328.14235,-0.00187
607,6326.21362,-0.00138
608,6324.2849,-0.00164
609,6322.35617,-0.00294
610,6320.42745,-0.00474
611,6318.49873,-0.00579
612,6316.57,-0.00654
613,6314.64128,-0.00759
614,6312.71256,-0.00731
615,6310.78383,-0.00571
616,6308.85511,-0.0051
617,6306.92639,-0.00492
618,6304.99766,-0.00371
619,6303.06894,-0.00316
620,6301.14021,-0.00457
621,6299.21149,-0.00615
622,6297.28277,-0.00667
623,6295.35404,-0.00645
624,6293.42532,-0.00587
625,6291.4966,-0.00565
626,6289.56787,-0.00577
627,6287.63915,-0.00546
628,6285.71042,-0.0046
629,6283.7817,-0.0042
630,6281.85298,-0.00495
631,6279.92425,-0.00588
632,6277.99553,-0.00607
633,6276.06681,-0.00637
634,6274.13808,-0.0068
635,6272.20936,-0.00591
636,6270.28064,-0.0044
637,6268.35191,-0.00465
638,6266.42319,-0.00612
639,6264.49446,-0.00664
640,6262.56574,-0.00624
641,6260.63702,-0.00585
642,6258.70829,-0.00571
643,6256.77957,-0.00576
644,6254.85085,-0.00541
645,6252.92212,-0.00484
646,6250.9934,-0.00556
647,6249.06468,-0.00697
648,6247.13595,-0.0073
649,6245.20723,-0.00722
650,6243.2785,-0.00757
651,6241.34978,-0.00806
652,6239.42106,-0.00821
653,6237.49233,-0.00734
654,6235.56361,-0.00569
655,6233.63489,-0.00433
656,6231.70616,-0.00403
657,6229.77744,-0.00488
658,6227.84871,-0.00523
659,6225.91999,-0.0042
660,6223.99127,-0.00321
661,6222.06254,-0.00282
662,6220.13382,-0.0032
663,6218.2051,-0.00442
664,6216.27637,-0.00482
665,6214.34765,-0.00437
666,6212.41893,-0.00466
667,6210.4902,-0.0052
668,6208.56148,-0.00468
669,6206.63275,-0.00345
670,6204.70403,-0.00301
671,6202.77531,-0.00356
672,6200.84658,-0.00405
673,6198.91786,-0.00424
674,6196.98914,-0.00413
675,6195.06041,-0.00353
676,6193.13169,-0.00308
677,6191.20297,-0.00355
678,6189.27424,-0.00467
679,6187.34552,-0.00547
680,6185.41679,-0.00541
681,6183.48807,-0.00524
682,6181.55935,-0.00517
683,6179.63062,-0.00433
684,6177.7019,-0.00336
685,6175.77318,-0.00371
686,6173.84445,-0.00473
687,6171.91573,-0.00517
688,6169.987,-0.00509
689,6168.05828,-0.0056
690,6166.12956,-0.00748
691,6164.20083,-0.00942
692,6162.27211,-0.00971
693,6160.34339,-0.0087
694,6158.41466,-0.00744
695,6156.48594,-0.0067
696,6154.55722,-0.00662
697,6152.62849,-0.00591
698,6150.69977,-0.00468
699,6148.77104,-0.00467
700,6146.84232,-0.00477
701,6144.9136,-0.00365
702,6142.98487,-0.00371
703,6141.05615,-0.00619
704,6139.12743,-0.00845
705,6137.1987,-0.00868
706,6135.26998,-0.00817
707,6133.34126,-0.00777
708,6131.41253,-0.00683
709,6129.48381,-0.00583
710,6127.55508,-0.00564
711,6125.62636,-0.00569
712,6123.69764,-0.00545
713,6121.76891,-0.0055
714,6119.84019,-0.00589
715,6117.91147,-0.00583
716,6115.98274,-0.00553
717,6114.05402,-0.00598
718,6112.12529,-0.00707
719,6110.19657,-0.00727
720,6108.26785,-0.00615
721,6106.33912,-0.0055
722,6104.4104,-0.00633
723,6102.48168,-0.00703
724,6100.55295,-0.0062
725,6098.62423,-0.00492
726,6096.69551,-0.0044
727,6094.76678,-0.00453
728,6092.83806,-0.0049
729,6090.90933,-0.00487
730,6088.98061,-0.00465
731,6087.05189,-0.00564
732,6085.12316,-0.00753
733,6083.19444,-0.00802
734,6081.26572,-0.00687
735,6079.33699,-0.00584
736,6077.40827,-0.00499
737,6075.47955,-0.0038
738,6073.55082,-0.00286
739,6071.6221,-0.00292
740,6069.69337,-0.00396
741,6067.76465,-0.00512
742,6065.83593,-0.00533
743,6063.9072,-0.00442
744,6061.97848,-0.00388
745,6060.04976,-0.00454
746,6058.12103,-0.00503
747,6056.19231,-0.00488
748,6054.26358,-0.00501
749,6052.33486,-0.00524
750,6050.40614,-0.00512
751,6048.47741,-0.00541
752,6046.54869,-0.00656
753,6044.61997,-0.0077
754,6042.69124,-0.00798
755,6040.76252,-0.00741
756,6038.8338,-0.0065
757,6036.90507,-0.00604
758,6034.97635,-0.0061
759,6033.04762,-0.00606
760,6031.1189,-0.0059
761,6029.19018,-0.006
762,6027.26145,-0.00629
763,6025.33273,-0.00654
764,6023.40401,-0.00623
765,6021.47528,-0.00586
766,6019.54656,-0.00678
767,6017.61784,-0.00815
768,6015.68911,-0.00794
769,6013.76039,-0.00658
770,6011.83166,-0.00577
771,6009.90294,-0.00575
772,6007.97422,-0.00625
773,6006.04549,-0.00717
774,6004.11677,-0.00812
775,6002.18805,-0.00877
776,6000.25932,-0.00826
777,5998.3306,-0.0067
778,5996.40187,-0.00542
779,5994.47315,-0.0047
780,5992.54443,-0.00485
781,5990.6157,-0.00598
782,5988.68698,-0.00716
783,5986.75826,-0.00752
784,5984.82953,-0.00713
785,5982.90081,-0.00726
786,5980.97209,-0.00797
787,5979.04336,-0.00743
788,5977.11464,-0.00605
789,5975.18591,-0.00615
790,5973.25719,-0.00713
791,5971.32847,-0.0068
792,5969.39974,-0.00569
793,5967.47102,-0.00527
794,5965.5423,-0.00535
795,5963.61357,-0.00602
796,5961.68485,-0.0073
797,5959.75613,-0.00787
798,5957.8274,-0.00727
799,5955.89868,-0.00726
800,5953.96995,-0.00904
801,5952.04123,-0.01079
802,5950.11251,-0.0101
803,5948.18378,-0.00766
804,5946.25506,-0.00604
805,5944.32634,-0.00582
806,5942.39761,-0.00652
807,5940.46889,-0.00804
808,5938.54017,-0.00861
809,5936.61144,-0.00692
810,5934.68272,-0.00516
811,5932.75399,-0.00526
812,5930.82527,-0.0061
813,5928.89655,-0.00632
814,5926.96782,-0.00667
815,5925.0391,-0.00761
816,5923.11038,-0.00791
817,5921.18165,-0.00747
818,5919.25293,-0.00773
819,5917.3242,-0.00863
820,5915.39548,-0.00885
821,5913.46676,-0.00838
822,5911.53803,-0.00834
823,5909.60931,-0.00854
824,5907.68059,-0.00827
825,5905.75186,-0.00832
826,5903.82314,-0.0089
827,5901.89442,-0.00848
828,5899.96569,-0.00696
829,5898.03697,-0.00597
830,5896.10824,-0.00616
831,5894.17952,-0.00684
832,5892.2508,-0.00683
833,5890.32207,-0.00573
834,5888.39335,-0.00471
835,5886.46463,-0.0047
836,5884.5359,-0.00542
837,5882.60718,-0.00651
838,5880.67846,-0.00729
839,5878.74973,-0.00725
840,5876.82101,-0.00685
841,5874.89228,-0.00639
842,5872.96356,-0.00617
843,5871.03484,-0.00642
844,5869.10611,-0.00669
845,5867.17739,-0.00706
846,5865.24867,-0.00765
847,5863.31994,-0.00787
848,5861.39122,-0.00752
849,5859.46249,-0.00666
850,5857.53377,-0.00596
851,5855.60505,-0.00606
852,5853.67632,-0.00601
853,5851.7476,-0.00555
854,5849.81888,-0.00583
855,5847.89015,-0.00645
856,5845.96143,-0.00644
857,5844.03271,-0.00636
858,5842.10398,-0.00633
859,5840.17526,-0.0055
860,5838.24653,-0.00408
861,5836.31781,-0.00348
862,5834.38909,-0.00433
863,5832.46036,-0.00561
864,5830.53164,-0.00643
865,5828.60292,-0.00742
866,5826.67419,-0.00848
867,5824.74547,-0.00834
868,5822.81675,-0.00758
869,5820.88802,-0.00749
870,5818.9593,-0.00738
871,5817.03057,-0.00676
872,5815.10185,-0.00651
873,5813.17313,-0.00697
874,5811.2444,-0.00771
875,5809.31568,-0.00817
876,5807.38696,-0.00782
877,5805.45823,-0.00711
878,5803.52951,-0.00735
879,5801.60078,-0.00827
880,5799.67206,-0.00807
881,5797.74334,-0.00669
882,5795.81461,-0.00582
883,5793.88589,-0.00578
884,5791.95717,-0.0056
885,5790.02844,-0.00519
886,5788.09972,-0.00529
887,5786.171,-0.00603
888,5784.24227,-0.00653
889,5782.31355,-0.00642
890,5780.38482,-0.00648
891,5778.4561,-0.00704
892,5776.52738,-0.0074
893,5774.59865,-0.00692
894,5772.66993,-0.00573
895,5770.74121,-0.00495
896,5768.81248,-0.00523
897,5766.88376,-0.00549
898,5764.95504,-0.00532
899,5763.02631,-0.00563
900,5761.09759,-0.00646
901,5759.16886,-0.00673
902,5757.24014,-0.00601
903,5755.31142,-0.00511
904,5753.38269,-0.00514
905,5751.45397,-0.00577
906,5749.52525,-0.00565
907,5747.59652,-0.00482
908,5745.6678,-0.0046
909,5743.73907,-0.00553
910,5741.81035,-0.00661
911,5739.88163,-0.00687
912,5737.9529,-0.00664
913,5736.02418,-0.00614
914,5734.09546,-0.00536
915,5732.16673,-0.0052
916,5730.23801,-0.00575
917,5728.30929,-0.00588
918,5726.38056,-0.00587
919,5724.45184,-0.00651
920,5722.52311,-0.00726
921,5720.59439,-0.00745
922,5718.66567,-0.00726
923,5716.73694,-0.00701
924,5714.80822,-0.00661
925,5712.8795,-0.00644
926,5710.95077,-0.0068
927,5709.02205,-0.00667
928,5707.09333,-0.00561
929,5705.1646,-0.00465
930,5703.23588,-0.00467
931,5701.30715,-0.0055
932,5699.37843,-0.00594
933,5697.44971,-0.00547
934,5695.52098,-0.00517
935,5693.59226,-0.00535
936,5691.66354,-0.00518
937,5689.73481,-0.0048
938,5687.80609,-0.00477
939,5685.87736,-0.00503
940,5683.94864,-0.0056
941,5682.01992,-0.00614
942,5680.09119,-0.00608
943,5678.16247,-0.00588
944,5676.23375,-0.00615
945,5674.30502,-0.00645
946,5672.3763,-0.00622
947,5670.44758,-0.00589
948,5668.51885,-0.00578
949,5666.59013,-0.00517
950,5664.6614,-0.00415
951,5662.73268,-0.00399
952,5660.80396,-0.00459
953,5658.87523,-0.00479
954,5656.94651,-0.00491
955,5655.01779,-0.00545
956,5653.08906,-0.00578
957,5651.16034,-0.00579
958,5649.23162,-0.00583
959,5647.30289,-0.00572
960,5645.37417,-0.00523
961,5643.44544,-0.00483
962,5641.51672,-0.00525
963,5639.588,-0.00586
964,5637.65927,-0.00563
965,5635.73055,-0.00496
966,5633.80183,-0.00446
967,5631.8731,-0.00417
968,5629.94438,-0.00413
969,5628.01565,-0.00423
970,5626.08693,-0.00459
971,5624.15821,-0.0051
972,5622.22948,-0.00528
973,5620.30076,-0.00536
974,5618.37204,-0.00542
975,5616.44331,-0.00548
976,5614.51459,-0.00593
977,5612.58587,-0.00607
978,5610.65714,-0.00525
979,5608.72842,-0.00443
980,5606.79969,-0.00435
981,5604.87097,-0.00439
982,5602.94225,-0.00422
983,5601.01352,-0.00432
984,5599.0848,-0.00445
985,5597.15608,-0.00444
986,5595.22735,-0.00479
987,5593.29863,-0.00535
988,5591.36991,-0.00518
989,5589.44118,-0.00452
990,5587.51246,-0.00455
991,5585.58373,-0.00501
992,5583.65501,-0.00475
993,5581.72629,-0.00416
994,5579.79756,-0.00425
995,5577.86884,-0.00463
996,5575.94012,-0.00435
997,5574.01139,-0.00341
998,5572.08267,-0.00269
999,5570.15394,-0.00271
1000,5568.22522,-0.00323
1001,5566.2965,-0.004
1002,5564.36777,-0.00447
1003,5562.43905,-0.00404
1004,5560.51033,-0.00321
1005,5558.5816,-0.00291
1006,5556.65288,-0.00327
1007,5554.72416,-0.00408
1008,5552.79543,-0.00503
1009,5550.86671,-0.00536
1010,5548.93798,-0.00491
1011,5547.00926,-0.00435
1012,5545.08054,-0.00409
1013,5543.15181,-0.00394
1014,5541.22309,-0.00349
1015,5539.29437,-0.00313
1016,5537.36564,-0.00356
1017,5535.43692,-0.0042
1018,5533.5082,-0.00421
1019,5531.57947,-0.00409
1020,5529.65075,-0.00427
1021,5527.72202,-0.00442
1022,5525.7933,-0.00442
1023,5523.86458,-0.00446
1024,5521.93585,-0.00446
1025,5520.00713,-0.00435
1026,5518.07841,-0.00437
1027,5516.14968,-0.00435
1028,5514.22096,-0.00402
1029,5512.29224,-0.00362
1030,5510.36351,-0.00348
1031,5508.43479,-0.00363
1032,5506.50606,-0.0034
1033,5504.57734,-0.00278
1034,5502.64862,-0.00266
1035,5500.71989,-0.00327
1036,5498.79117,-0.0039
1037,5496.86245,-0.00397
1038,5494.93372,-0.00407
1039,5493.005,-0.00441
1040,5491.07627,-0.00448
1041,5489.14755,-0.00465
1042,5487.21883,-0.00478
1043,5485.2901,-0.00421
1044,5483.36138,-0.00342
1045,5481.43266,-0.0029
1046,5479.50393,-0.00251
1047,5477.57521,-0.00305
1048,5475.64649,-0.00454
1049,5473.71776,-0.00524
1050,5471.78904,-0.00498
1051,5469.86031,-0.00469
1052,5467.93159,-0.00434
1053,5466.00287,-0.00392
1054,5464.07414,-0.00378
1055,5462.14542,-0.00433
1056,5460.2167,-0.00502
1057,5458.28797,-0.00514
1058,5456.35925,-0.00491
1059,5454.43053,-0.00448
1060,5452.5018,-0.00416
1061,5450.57308,-0.0042
1062,5448.64435,-0.00444
1063,5446.71563,-0.00517
1064,5444.78691,-0.00591
1065,5442.85818,-0.00614
1066,5440.92946,-0.00593
1067,5439.00074,-0.00495
1068,5437.07201,-0.00407
1069,5435.14329,-0.00382
1070,5433.21456,-0.00331
1071,5431.28584,-0.00327
1072,5429.35712,-0.00443
1073,5427.42839,-0.00514
1074,5425.49967,-0.00485
1075,5423.57095,-0.00463
1076,5421.64222,-0.00462
1077,5419.7135,-0.00446
1078,5417.78478,-0.00432
1079,5415.85605,-0.00505
1080,5413.92733,-0.00644
1081,5411.9986,-0.00702
1082,5410.06988,-0.00657
1083,5408.14116,-0.00581
1084,5406.21243,-0.00544
1085,5404.28371,-0.00541
1086,5402.35499,-0.00496
1087,5400.42626,-0.00416
1088,5398.49754,-0.00392
1089,5396.56882,-0.00474
1090,5394.64009,-0.00621
1091,5392.71137,-0.00693
1092,5390.78264,-0.00638
1093,5388.85392,-0.0059
1094,5386.9252,-0.00643
1095,5384.99647,-0.00717
1096,5383.06775,-0.00706
1097,5381.13903,-0.00623
1098,5379.2103,-0.00574
1099,5377.28158,-0.00637
1100,5375.35285,-0.00721
1101,5373.42413,-0.00713
1102,5371.49541,-0.00638
1103,5369.56668,-0.00591
1104,5367.63796,-0.00614
1105,5365.70924,-0.00687
1106,5363.78051,-0.00773
1107,5361.85179,-0.00804
1108,5359.92307,-0.00726
1109,5357.99434,-0.00607
1110,5356.06562,-0.00628
1111,5354.13689,-0.00806
1112,5352.20817,-0.00891
1113,5350.27945,-0.00795
1114,5348.35072,-0.00713
1115,5346.422,-0.00804
1116,5344.49328,-0.00962
1117,5342.56455,-0.00954
1118,5340.63583,-0.00885
1119,5338.70711,-0.00927
1120,5336.77838,-0.00965
1121,5334.84966,-0.00927
1122,5332.92093,-0.00909
1123,5330.99221,-0.00925
1124,5329.06349,-0.00947
1125,5327.13476,-0.0095
1126,5325.20604,-0.00903
1127,5323.27732,-0.00864
1128,5321.34859,-0.00861
1129,5319.41987,-0.00856
1130,5317.49114,-0.00837
1131,5315.56242,-0.00818
1132,5313.6337,-0.00781
1133,5311.70497,-0.00718
1134,5309.77625,-0.00692
1135,5307.84753,-0.00753
1136,5305.9188,-0.0081
1137,5303.99008,-0.00812
1138,5302.06136,-0.0081
1139,5300.13263,-0.00817
1140,5298.20391,-0.0079
1141,5296.27518,-0.00716
1142,5294.34646,-0.00647
1143,5292.41774,-0.00639
1144,5290.48901,-0.00666
1145,5288.56029,-0.00638
1146,5286.63157,-0.00591
1147,5284.70284,-0.00573
1148,5282.77412,-0.00557
1149,5280.8454,-0.00558
1150,5278.91667,-0.00559
1151,5276.98795,-0.00501
1152,5275.05922,-0.00402
1153,5273.1305,-0.00339
1154,5271.20178,-0.00337
1155,5269.27305,-0.00339
1156,5267.34433,-0.00343
1157,5265.41561,-0.0043
1158,5263.48688,-0.00548
1159,5261.55816,-0.00554
1160,5259.62943,-0.00459
1161,5257.70071,-0.00384
1162,5255.77199,-0.00386
1163,5253.84326,-0.00351
1164,5251.91454,-0.00232
1165,5249.98582,-0.00172
1166,5248.05709,-0.00211
1167,5246.12837,-0.00263
1168,5244.19965,-0.00299
1169,5242.27092,-0.00306
1170,5240.3422,-0.00283
1171,5238.41347,-0.00249
1172,5236.48475,-0.00242
1173,5234.55603,-0.00275
1174,5232.6273,-0.00294
1175,5230.69858,-0.00264
1176,5228.76986,-0.00223
1177,5226.84113,-0.00248
1178,5224.91241,-0.00305
1179,5222.98369,-0.00311
1180,5221.05496,-0.00292
1181,5219.12624,-0.00268
1182,5217.19751,-0.00214
1183,5215.26879,-0.00169
1184,5213.34007,-0.00176
1185,5211.41134,-0.00196
1186,5209.48262,-0.00215
1187,5207.5539,-0.0027
1188,5205.62517,-0.00292
1189,5203.69645,-0.00221
1190,5201.76772,-0.00147
1191,5199.839,-0.00125
1192,5197.91028,-0.00158
1193,5195.98155,-0.00208
1194,5194.05283,-0.00282
1195,5192.12411,-0.00353
1196,5190.19538,-0.00344
1197,5188.26666,-0.00295
1198,5186.33794,-0.00317
1199,5184.40921,-0.00389
1200,5182.48049,-0.00405
1201,5180.55176,-0.00381
1202,5178.62304,-0.00359
1203,5176.69432,-0.00349
1204,5174.76559,-0.00358
1205,5172.83687,-0.00389
1206,5170.90815,-0.00405
1207,5168.97942,-0.00362
1208,5167.0507,-0.00328
1209,5165.12198,-0.00382
1210,5163.19325,-0.0047
1211,5161.26453,-0.00516
1212,5159.3358,-0.00505
1213,5157.40708,-0.00429
1214,5155.47836,-0.00337
1215,5153.54963,-0.00313
1216,5151.62091,-0.0036
1217,5149.69219,-0.00418
1218,5147.76346,-0.00448
1219,5145.83474,-0.00459
1220,5143.90601,-0.00468
1221,5141.97729,-0.0047
1222,5140.04857,-0.00458
1223,5138.11984,-0.00464
1224,5136.19112,-0.00494
1225,5134.2624,-0.00499
1226,5132.33367,-0.00481
1227,5130.40495,-0.0049
1228,5128.47623,-0.00521
1229,5126.5475,-0.0054
1230,5124.61878,-0.00532
1231,5122.69005,-0.0048
1232,5120.76133,-0.00412
1233,5118.83261,-0.00385
1234,5116.90388,-0.00403
1235,5114.97516,-0.00431
1236,5113.04644,-0.00451
1237,5111.11771,-0.00465
1238,5109.18899,-0.0048
1239,5107.26027,-0.005
1240,5105.33154,-0.00494
1241,5103.40282,-0.00448
1242,5101.47409,-0.00417
1243,5099.54537,-0.00444
1244,5097.61665,-0.00484
1245,5095.68792,-0.00489
1246,5093.7592,-0.00483
1247,5091.83048,-0.00482
1248,5089.90175,-0.00475
1249,5087.97303,-0.0048
1250,5086.04431,-0.00501
1251,5084.11558,-0.005
1252,5082.18686,-0.00456
1253,5080.25813,-0.00411
1254,5078.32941,-0.00401
1255,5076.40069,-0.004
1256,5074.47196,-0.00411
1257,5072.54324,-0.00449
1258,5070.61452,-0.0047
1259,5068.68579,-0.00434
1260,5066.75707,-0.00396
1261,5064.82834,-0.00398
1262,5062.89962,-0.00401
1263,5060.9709,-0.00403
1264,5059.04217,-0.00433
1265,5057.11345,-0.00468
1266,5055.18473,-0.00496
1267,5053.256,-0.00532
1268,5051.32728,-0.00563
1269,5049.39856,-0.00555
1270,5047.46983,-0.00536
1271,5045.54111,-0.00547
1272,5043.61238,-0.00563
1273,5041.68366,-0.00546
1274,5039.75494,-0.00505
1275,5037.82621,-0.0047
1276,5035.89749,-0.00465
1277,5033.96877,-0.00473
1278,5032.04004,-0.00441
1279,5030.11132,-0.00384
1280,5028.1826,-0.00376
1281,5026.25387,-0.00403
1282,5024.32515,-0.00389
1283,5022.39642,-0.00344
1284,5020.4677,-0.00326
1285,5018.53898,-0.00348
1286,5016.61025,-0.00404
1287,5014.68153,-0.00458
1288,5012.75281,-0.00471
1289,5010.82408,-0.00468
1290,5008.89536,-0.00495
1291,5006.96663,-0.00519
1292,5005.03791,-0.00483
1293,5003.10919,-0.00414
1294,5001.18046,-0.00387
1295,4999.25174,-0.00409
1296,4997.32302,-0.00428
1297,4995.39429,-0.00398
1298,4993.46557,-0.00396
1299,4991.53685,-0.00447
1300,4989.60812,-0.00481
1301,4987.6794,-0.00462
1302,4985.75067,-0.00428
1303,4983.82195,-0.00417
1304,4981.89323,-0.00433
1305,4979.9645,-0.00461
1306,4978.03578,-0.00477
1307,4976.10706,-0.00449
1308,4974.17833,-0.00411
1309,4972.24961,-0.00407
1310,4970.32089,-0.00421
1311,4968.39216,-0.00425
1312,4966.46344,-0.00395
1313,4964.53471,-0.00338
1314,4962.60599,-0.00299
1315,4960.67727,-0.00306
1316,4958.74854,-0.0035
1317,4956.81982,-0.00412
1318,4954.8911,-0.00461
1319,4952.96237,-0.00488
1320,4951.03365,-0.00489
1321,4949.10492,-0.00457
1322,4947.1762,-0.00405
1323,4945.24748,-0.0036
1324,4943.31875,-0.00355
1325,4941.39003,-0.00379
1326,4939.46131,-0.00374
1327,4937.53258,-0.00336
1328,4935.60386,-0.00326
1329,4933.67514,-0.00363
1330,4931.74641,-0.00399
1331,4929.81769,-0.00394
1332,4927.88896,-0.00372
1333,4925.96024,-0.00392
1334,4924.03152,-0.00429
1335,4922.10279,-0.00404
1336,4920.17407,-0.00337
1337,4918.24535,-0.00301
1338,4916.31662,-0.00303
1339,4914.3879,-0.00331
1340,4912.45918,-0.00379
1341,4910.53045,-0.00413
1342,4908.60173,-0.00401
1343,4906.673,-0.00375
1344,4904.74428,-0.00378
1345,4902.81556,-0.00387
1346,4900.88683,-0.00381
1347,4898.95811,-0.00381
1348,4897.02939,-0.00396
1349,4895.10066,-0.00417
1350,4893.17194,-0.00437
1351,4891.24321,-0.00465
1352,4889.31449,-0.00491
1353,4887.38577,-0.00483
1354,4885.45704,-0.00462
1355,4883.52832,-0.00464
1356,4881.5996,-0.00468
1357,4879.67087,-0.00464
1358,4877.74215,-0.00472
1359,4875.81343,-0.00473
1360,4873.8847,-0.00445
1361,4871.95598,-0.00419
1362,4870.02725,-0.00425
1363,4868.09853,-0.00455
1364,4866.16981,-0.0047
1365,4864.24108,-0.00474
1366,4862.31236,-0.0048
1367,4860.38364,-0.00474
1368,4858.45491,-0.00457
1369,4856.52619,-0.00456
1370,4854.59747,-0.00468
1371,4852.66874,-0.00455
1372,4850.74002,-0.00425
1373,4848.81129,-0.00426
1374,4846.88257,-0.00452
1375,4844.95385,-0.00434
1376,4843.02512,-0.00387
1377,4841.0964,-0.00398
1378,4839.16768,-0.00454
1379,4837.23895,-0.00496
1380,4835.31023,-0.00509
1381,4833.3815,-0.00489
1382,4831.45278,-0.00461
1383,4829.52406,-0.00451
1384,4827.59533,-0.00432
1385,4825.66661,-0.00396
1386,4823.73789,-0.00378
1387,4821.80916,-0.00403
1388,4819.88044,-0.00452
1389,4817.95172,-0.00483
1390,4816.02299,-0.00481
1391,4814.09427,-0.00473
1392,4812.16554,-0.00483
1393,4810.23682,-0.00494
1394,4808.3081,-0.00485
1395,4806.37937,-0.00475
1396,4804.45065,-0.00471
1397,4802.52193,-0.00458
1398,4800.5932,-0.00443
1399,4798.66448,-0.00449
1400,4796.73576,-0.00484
1401,4794.80703,-0.00526
1402,4792.87831,-0.0054
1403,4790.94958,-0.00536
1404,4789.02086,-0.00531
1405,4787.09214,-0.00531
1406,4785.16341,-0.00534
1407,4783.23469,-0.00511
1408,4781.30597,-0.0048
1409,4779.37724,-0.00491
1410,4777.44852,-0.00529
1411,4775.51979,-0.00552
1412,4773.59107,-0.00548
1413,4771.66235,-0.00524
1414,4769.73362,-0.00498
1415,4767.8049,-0.00494
1416,4765.87618,-0.00498
1417,4763.94745,-0.00494
1418,4762.01873,-0.00497
1419,4760.09001,-0.00505
1420,4758.16128,-0.00501
1421,4756.23256,-0.005
1422,4754.30383,-0.00519
1423,4752.37511,-0.00523
1424,4750.44639,-0.00496
1425,4748.51766,-0.00482
1426,4746.58894,-0.00494
1427,4744.66022,-0.00504
1428,4742.73149,-0.00504
1429,4740.80277,-0.00489
1430,4738.87405,-0.00471
1431,4736.94532,-0.00485
1432,4735.0166,-0.00522
1433,4733.08787,-0.00537
1434,4731.15915,-0.0051
1435,4729.23043,-0.00452
1436,4727.3017,-0.00405
1437,4725.37298,-0.00408
1438,4723.44426,-0.00453
1439,4721.51553,-0.00496
1440,4719.58681,-0.00495
1441,4717.65808,-0.00458
1442,4715.72936,-0.00437
1443,4713.80064,-0.00442
1444,4711.87191,-0.00433
1445,4709.94319,-0.00423
1446,4708.01447,-0.00466
1447,4706.08574,-0.0052
1448,4704.15702,-0.0051
1449,4702.2283,-0.00494
1450,4700.29957,-0.00513
1451,4698.37085,-0.00507
1452,4696.44212,-0.00457
1453,4694.5134,-0.00401
1454,4692.58468,-0.00383
1455,4690.65595,-0.0043
1456,4688.72723,-0.0049
1457,4686.79851,-0.00502
1458,4684.86978,-0.00486
1459,4682.94106,-0.00469
1460,4681.01234,-0.00461
1461,4679.08361,-0.00456
1462,4677.15489,-0.00438
1463,4675.22616,-0.00417
1464,4673.29744,-0.0041
1465,4671.36872,-0.00427
1466,4669.43999,-0.00454
1467,4667.51127,-0.00458
1468,4665.58255,-0.00461
1469,4663.65382,-0.00485
1470,4661.7251,-0.00497
1471,4659.79638,-0.00484
1472,4657.86765,-0.00458
1473,4655.93893,-0.0042
1474,4654.0102,-0.00391
1475,4652.08148,-0.00397
1476,4650.15276,-0.00428
1477,4648.22403,-0.00429
1478,4646.29531,-0.0039
1479,4644.36659,-0.00365
1480,4642.43786,-0.00359
1481,4640.50914,-0.00321
1482,4638.58041,-0.00285
1483,4636.65169,-0.00304
1484,4634.72297,-0.0036
1485,4632.79424,-0.00424
1486,4630.86552,-0.00472
1487,4628.9368,-0.00467
1488,4627.00807,-0.00419
1489,4625.07935,-0.00377
1490,4623.15063,-0.00359
1491,4621.2219,-0.00363
1492,4619.29318,-0.00369
1493,4617.36445,-0.00376
1494,4615.43573,-0.00411
1495,4613.50701,-0.00449
1496,4611.57828,-0.00446
1497,4609.64956,-0.00435
1498,4607.72084,-0.00457
1499,4605.79211,-0.00471
1500,4603.86339,-0.00445
1501,4601.93467,-0.00426
1502,4600.00594,-0.00444
1503,4598.07722,-0.0047
1504,4596.14849,-0.00487
1505,4594.21977,-0.00493
1506,4592.29105,-0.00484
1507,4590.36232,-0.00464
1508,4588.4336,-0.00454
1509,4586.50488,-0.00441
1510,4584.57615,-0.00417
1511,4582.64743,-0.00421
1512,4580.7187,-0.00441
1513,4578.78998,-0.0044
1514,4576.86126,-0.00445
1515,4574.93253,-0.00486
1516,4573.00381,-0.00503
1517,4571.07509,-0.00489
1518,4569.14636,-0.00493
1519,4567.21764,-0.00486
1520,4565.28892,-0.00445
1521,4563.36019,-0.00417
1522,4561.43147,-0.00414
1523,4559.50274,-0.00412
1524,4557.57402,-0.0042
1525,4555.6453,-0.00464
1526,4553.71657,-0.00528
1527,4551.78785,-0.00561
1528,4549.85913,-0.00547
1529,4547.9304,-0.00505
1530,4546.00168,-0.00471
1531,4544.07296,-0.00467
1532,4542.14423,-0.00477
1533,4540.21551,-0.00477
1534,4538.28678,-0.0047
1535,4536.35806,-0.00464
1536,4534.42934,-0.00466
1537,4532.50061,-0.00472
1538,4530.57189,-0.00471
1539,4528.64317,-0.00487
1540,4526.71444,-0.0051
1541,4524.78572,-0.00522
1542,4522.85699,-0.00532
1543,4520.92827,-0.00538
1544,4518.99955,-0.00534
1545,4517.07082,-0.00534
1546,4515.1421,-0.0054
1547,4513.21338,-0.00524
1548,4511.28465,-0.00499
1549,4509.35593,-0.00499
1550,4507.42721,-0.00514
1551,4505.49848,-0.0053
1552,4503.56976,-0.00556
1553,4501.64103,-0.00568
1554,4499.71231,-0.00551
1555,4497.78359,-0.00542
1556,4495.85486,-0.0054
1557,4493.92614,-0.00519
1558,4491.99742,-0.00511
1559,4490.06869,-0.00538
1560,4488.13997,-0.0055
1561,4486.21125,-0.0054
1562,4484.28252,-0.00545
1563,4482.3538,-0.00547
1564,4480.42507,-0.00524
1565,4478.49635,-0.00499
1566,4476.56763,-0.00488
1567,4474.6389,-0.00503
1568,4472.71018,-0.0055
1569,4470.78146,-0.00583
1570,4468.85273,-0.00576
1571,4466.92401,-0.00565
1572,4464.99528,-0.00568
1573,4463.06656,-0.00564
1574,4461.13784,-0.00552
1575,4459.20911,-0.00521
1576,4457.28039,-0.00475
1577,4455.35167,-0.00453
1578,4453.42294,-0.00457
1579,4451.49422,-0.00461
1580,4449.5655,-0.00474
1581,4447.63677,-0.0049
1582,4445.70805,-0.00489
1583,4443.77932,-0.00473
1584,4441.8506,-0.00461
1585,4439.92188,-0.00467
1586,4437.99315,-0.00472
1587,4436.06443,-0.00444
1588,4434.13571,-0.00414
1589,4432.20698,-0.0042
1590,4430.27826,-0.00434
1591,4428.34954,-0.00437
1592,4426.42081,-0.00445
1593,4424.49209,-0.00451
1594,4422.56336,-0.00433
1595,4420.63464,-0.00421
1596,4418.70592,-0.00438
1597,4416.77719,-0.00454
1598,4414.84847,-0.00451
1599,4412.91975,-0.00447
1600,4410.99102,-0.00448
1601,4409.0623,-0.00436
1602,4407.13357,-0.00404
1603,4405.20485,-0.00366
1604,4403.27613,-0.00342
1605,4401.3474,-0.00348
1606,4399.41868,-0.00377
1607,4397.48996,-0.00415
1608,4395.56123,-0.00448
1609,4393.63251,-0.00448
1610,4391.70379,-0.00415
1611,4389.77506,-0.00384
1612,4387.84634,-0.00363
1613,4385.91761,-0.00341
1614,4383.98889,-0.00326
1615,4382.06017,-0.00335
1616,4380.13144,-0.00355
1617,4378.20272,-0.00374
1618,4376.274,-0.00402
1619,4374.34527,-0.00424
1620,4372.41655,-0.00434
1621,4370.48783,-0.00438
1622,4368.5591,-0.00435
1623,4366.63038,-0.00421
1624,4364.70165,-0.00403
1625,4362.77293,-0.00388
1626,4360.84421,-0.00375
1627,4358.91548,-0.00367
1628,4356.98676,-0.00371
1629,4355.05804,-0.00373
1630,4353.12931,-0.00361
1631,4351.20059,-0.00357
1632,4349.27186,-0.00369
1633,4347.34314,-0.00392
1634,4345.41442,-0.00419
1635,4343.48569,-0.00431
1636,4341.55697,-0.00421
1637,4339.62825,-0.00405
1638,4337.69952,-0.00395
1639,4335.7708,-0.00392
1640,4333.84208,-0.0039
1641,4331.91335,-0.00398
1642,4329.98463,-0.00419
1643,4328.0559,-0.00443
1644,4326.12718,-0.00465
1645,4324.19846,-0.00469
1646,4322.26973,-0.00454
1647,4320.34101,-0.00447
1648,4318.41229,-0.0044
1649,4316.48356,-0.00426
1650,4314.55484,-0.00454
1651,4312.62612,-0.00491
1652,4310.69739,-0.00487
1653,4308.76867,-0.00466
1654,4306.83994,-0.00459
1655,4304.91122,-0.00471
1656,4302.9825,-0.00482
1657,4301.05377,-0.00465
1658,4299.12505,-0.00425
1659,4297.19633,-0.00412
1660,4295.2676,-0.00452
1661,4293.33888,-0.00509
1662,4291.41015,-0.0053
1663,4289.48143,-0.00523
1664,4287.55271,-0.00511
1665,4285.62398,-0.00476
1666,4283.69526,-0.00425
1667,4281.76654,-0.00409
1668,4279.83781,-0.00432
1669,4277.90909,-0.00444
1670,4275.98037,-0.00444
1671,4274.05164,-0.00461
1672,4272.12292,-0.0047
1673,4270.19419,-0.00443
1674,4268.26547,-0.00416
1675,4266.33675,-0.00423
1676,4264.40802,-0.00448
1677,4262.4793,-0.00465
1678,4260.55058,-0.00475
1679,4258.62185,-0.0047
1680,4256.69313,-0.00438
1681,4254.76441,-0.00409
1682,4252.83568,-0.0042
1683,4250.90696,-0.00453
1684,4248.97823,-0.00469
1685,4247.04951,-0.00461
1686,4245.12079,-0.00455
1687,4243.19206,-0.00457
1688,4241.26334,-0.00462
1689,4239.33462,-0.00482
1690,4237.40589,-0.00518
1691,4235.47717,-0.00534
1692,4233.54845,-0.00515
1693,4231.61972,-0.00511
1694,4229.691,-0.00546
1695,4227.76227,-0.00572
1696,4225.83355,-0.00547
1697,4223.90483,-0.00493
1698,4221.9761,-0.00465
1699,4220.04738,-0.0048
1700,4218.11866,-0.00511
1701,4216.18993,-0.00539
1702,4214.26121,-0.00547
1703,4212.33248,-0.00527
1704,4210.40376,-0.00505
1705,4208.47504,-0.005
1706,4206.54631,-0.0048
1707,4204.61759,-0.00433
1708,4202.68887,-0.00401
1709,4200.76014,-0.00403
1710,4198.83142,-0.00415
1711,4196.9027,-0.00427
1712,4194.97397,-0.00448
1713,4193.04525,-0.00467
1714,4191.11652,-0.00486
1715,4189.1878,-0.0051
1716,4187.25908,-0.00505
1717,4185.33035,-0.00479
1718,4183.40163,-0.00477
1719,4181.47291,-0.00481
1720,4179.54418,-0.00472
1721,4177.61546,-0.00478
1722,4175.68674,-0.00491
1723,4173.75801,-0.00496
1724,4171.82929,-0.00507
1725,4169.90056,-0.00512
1726,4167.97184,-0.00488
1727,4166.04312,-0.00463
1728,4164.11439,-0.00475
1729,4162.18567,-0.00507
1730,4160.25695,-0.00523
1731,4158.32822,-0.0052
1732,4156.3995,-0.00516
1733,4154.47077,-0.00512
1734,4152.54205,-0.00506
1735,4150.61333,-0.00507
1736,4148.6846,-0.00514
1737,4146.75588,-0.0051
1738,4144.82716,-0.00507
1739,4142.89843,-0.00517
1740,4140.96971,-0.00525
1741,4139.04099,-0.00524
1742,4137.11226,-0.00536
1743,4135.18354,-0.00559
1744,4133.25481,-0.0056
1745,4131.32609,-0.00537
1746,4129.39737,-0.00525
1747,4127.46864,-0.00531
1748,4125.53992,-0.00544
1749,4123.6112,-0.00557
1750,4121.68247,-0.00567
1751,4119.75375,-0.00568
1752,4117.82503,-0.00545
1753,4115.8963,-0.00516
1754,4113.96758,-0.00505
1755,4112.03885,-0.00507
1756,4110.11013,-0.00507
1757,4108.18141,-0.0051
1758,4106.25268,-0.00519
1759,4104.32396,-0.00508
1760,4102.39524,-0.00472
1761,4100.46651,-0.00456
1762,4098.53779,-0.00483
1763,4096.60906,-0.00506
1764,4094.68034,-0.00501
1765,4092.75162,-0.00483
1766,4090.82289,-0.00482
1767,4088.89417,-0.00488
1768,4086.96545,-0.00482
1769,4085.03672,-0.00449
1770,4083.108,-0.00422
1771,4081.17928,-0.00432
1772,4079.25055,-0.00459
1773,4077.32183,-0.00477
1774,4075.3931,-0.0049
1775,4073.46438,-0.00489
1776,4071.53566,-0.00459
1777,4069.60693,-0.00431
1778,4067.67821,-0.00435
1779,4065.74949,-0.0045
1780,4063.82076,-0.00458
1781,4061.89204,-0.00468
1782,4059.96332,-0.00478
1783,4058.03459,-0.00474
1784,4056.10587,-0.00466
1785,4054.17714,-0.0047
1786,4052.24842,-0.00476
1787,4050.3197,-0.00478
1788,4048.39097,-0.00493
1789,4046.46225,-0.00534
1790,4044.53353,-0.00554
1791,4042.6048,-0.00517
1792,4040.67608,-0.00476
1793,4038.74735,-0.00472
1794,4036.81863,-0.00482
1795,4034.88991,-0.00488
1796,4032.96118,-0.00497
1797,4031.03246,-0.00507
1798,4029.10374,-0.00507
1799,4027.17501,-0.00518
1800,4025.24629,-0.00545
1801,4023.31757,-0.00554
1802,4021.38884,-0.00547
1803,4019.46012,-0.0054
1804,4017.53139,-0.00525
1805,4015.60267,-0.00517
1806,4013.67395,-0.00532
1807,4011.74522,-0.00574
1808,4009.8165,-0.00632
1809,4007.88778,-0.00663
1810,4005.95905,-0.00648
1811,4004.03033,-0.00625
1812,4002.10161,-0.0062
1813,4000.17288,-0.00618
1814,3998.24416,-0.00601
1815,3996.31543,-0.00574
1816,3994.38671,-0.0057
1817,3992.45799,-0.00592
1818,3990.52926,-0.00614
1819,3988.60054,-0.00608
1820,3986.67182,-0.0058
1821,3984.74309,-0.00562
1822,3982.81437,-0.00568
1823,3980.88564,-0.00577
1824,3978.95692,-0.00569
1825,3977.0282,-0.00556
1826,3975.09947,-0.00551
1827,3973.17075,-0.00551
1828,3971.24203,-0.00551
1829,3969.3133,-0.00547
1830,3967.38458,-0.00531
1831,3965.45586,-0.00506
1832,3963.52713,-0.00497
1833,3961.59841,-0.00496
1834,3959.66968,-0.00478
1835,3957.74096,-0.00455
1836,3955.81224,-0.00441
1837,3953.88351,-0.00428
1838,3951.95479,-0.00433
1839,3950.02607,-0.00483
1840,3948.09734,-0.00523
1841,3946.16862,-0.00497
1842,3944.2399,-0.00484
1843,3942.31117,-0.00509
1844,3940.38245,-0.005
1845,3938.45372,-0.00462
1846,3936.525,-0.00429
1847,3934.59628,-0.00437
1848,3932.66755,-0.00474
1849,3930.73883,-0.00461
1850,3928.81011,-0.00387
1851,3926.88138,-0.00344
1852,3924.95266,-0.00362
1853,3923.02393,-0.00372
1854,3921.09521,-0.00369
1855,3919.16649,-0.00403
1856,3917.23776,-0.00464
1857,3915.30904,-0.0048
1858,3913.38032,-0.00451
1859,3911.45159,-0.00418
1860,3909.52287,-0.00359
1861,3907.59415,-0.00296
1862,3905.66542,-0.00321
1863,3903.7367,-0.00433
1864,3901.80797,-0.00549
1865,3899.87925,-0.0063
1866,3897.95053,-0.00599
1867,3896.0218,-0.00474
1868,3894.09308,-0.00418
1869,3892.16436,-0.00475
1870,3890.23563,-0.00476
1871,3888.30691,-0.00431
1872,3886.37819,-0.00493
1873,3884.44946,-0.00537
1874,3882.52074,-0.00587
1875,3880.59201,-0.00699
1876,3878.66329,-0.00664
1877,3876.73457,-0.00549
1878,3874.80584,-0.00508
1879,3872.87712,-0.00508
1880,3870.9484,-0.00588
1881,3869.01967,-0.00618
1882,3867.09095,-0.00557
1883,3865.16222,-0.00592
1884,3863.2335,-0.00662
1885,3861.30478,-0.00647
1886,3859.37605,-0.00534
1887,3857.44733,-0.00428
1888,3855.51861,-0.00521
1889,3853.58988,-0.00788
1890,3851.66116,-0.00879
1891,3849.73244,-0.00787
1892,3847.80371,-0.00687
1893,3845.87499,-0.00613
1894,3843.94626,-0.00547
1895,3842.01754,-0.00496
1896,3840.08882,-0.00551
1897,3838.16009,-0.00689
1898,3836.23137,-0.00745
1899,3834.30265,-0.00725
1900,3832.37392,-0.00704
1901,3830.4452,-0.00647
1902,3828.51648,-0.00603
1903,3826.58775,-0.00563
1904,3824.65903,-0.00463
1905,3822.7303,-0.0047
1906,3820.80158,-0.00571
1907,3818.87286,-0.0061
1908,3816.94413,-0.00728
1909,3815.01541,-0.00795
1910,3813.08669,-0.0067
1911,3811.15796,-0.00511
1912,3809.22924,-0.00449
1913,3807.30052,-0.00468
1914,3805.37179,-0.00407
1915,3803.44307,-0.00426
1916,3801.51434,-0.00589
1917,3799.58562,-0.00631
1918,3797.6569,-0.00624
1919,3795.72817,-0.00607
1920,3793.79945,-0.00524
1921,3791.87073,-0.00454
1922,3789.942,-0.00416
1923,3788.01328,-0.00403
1924,3786.08455,-0.00412
1925,3784.15583,-0.0039
1926,3782.22711,-0.00359
1927,3780.29838,-0.00423
1928,3778.36966,-0.00497
1929,3776.44094,-0.00482
1930,3774.51221,-0.00424
1931,3772.58349,-0.00413
1932,3770.65477,-0.00498
1933,3768.72604,-0.00583
1934,3766.79732,-0.00638
1935,3764.86859,-0.00648
1936,3762.93987,-0.00596
1937,3761.01115,-0.00609
1938,3759.08242,-0.00678
1939,3757.1537,-0.00662
1940,3755.22498,-0.00557
1941,3753.29625,-0.0055
1942,3751.36753,-0.00699
1943,3749.43881,-0.00766
1944,3747.51008,-0.00711
1945,3745.58136,-0.00847
1946,3743.65263,-0.00939
1947,3741.72391,-0.00741
1948,3739.79519,-0.00516
1949,3737.86646,-0.00434
1950,3735.93774,-0.00494
1951,3734.00902,-0.00577
1952,3732.08029,-0.0055
1953,3730.15157,-0.00374
1954,3728.22284,-0.00199
1955,3726.29412,-0.00105
1956,3724.3654,-0.00039
1957,3722.43667,0.00031
1958,3720.50795,0.00146
1959,3718.57923,0.0033
1960,3716.6505,0.00585
1961,3714.72178,0.00831
1962,3712.79306,0.00985
1963,3710.86433,0.0111
1964,3708.93561,0.01318
1965,3707.00688,0.01607
1966,3705.07816,0.019
1967,3703.14944,0.02132
1968,3701.22071,0.02366
1969,3699.29199,0.02664
1970,3697.36327,0.02963
1971,3695.43454,0.03283
1972,3693.50582,0.03612
1973,3691.5771,0.03837
1974,3689.64837,0.03924
1975,3687.71965,0.04085
1976,3685.79092,0.04426
1977,3683.8622,0.048
1978,3681.93348,0.05175
1979,3680.00475,0.05577
1980,3678.07603,0.05927
1981,3676.14731,0.06217
1982,3674.21858,0.06661
1983,3672.28986,0.07037
1984,3670.36113,0.0713
1985,3668.43241,0.07273
1986,3666.50369,0.07547
1987,3664.57496,0.07826
1988,3662.64624,0.08135
1989,3660.71752,0.08472
1990,3658.78879,0.08704
1991,3656.86007,0.08797
1992,3654.93135,0.08959
1993,3653.00262,0.09174
1994,3651.0739,0.09217
1995,3649.14517,0.09124
1996,3647.21645,0.09133
1997,3645.28773,0.09307
1998,3643.359,0.09483
1999,3641.43028,0.09616
2000,3639.50156,0.09735
2001,3637.57283,0.09845
2002,3635.64411,0.09954
2003,3633.71539,0.10109
2004,3631.78666,0.10242
2005,3629.85794,0.10187
2006,3627.92921,0.10143
2007,3626.00049,0.10319
2008,3624.07177,0.10564
2009,3622.14304,0.10732
2010,3620.21432,0.10759
2011,3618.2856,0.10739
2012,3616.35687,0.10767
2013,3614.42815,0.10782
2014,3612.49942,0.10811
2015,3610.5707,0.10865
2016,3608.64198,0.10888
2017,3606.71325,0.10949
2018,3604.78453,0.11077
2019,3602.85581,0.11193
2020,3600.92708,0.11278
2021,3598.99836,0.11354
2022,3597.06964,0.11405
2023,3595.14091,0.11451
2024,3593.21219,0.11566
2025,3591.28346,0.11724
2026,3589.35474,0.11797
2027,3587.42602,0.11793
2028,3585.49729,0.11867
2029,3583.56857,0.12015
2030,3581.63985,0.1215
2031,3579.71112,0.1225
2032,3577.7824,0.1232
2033,3575.85368,0.12385
2034,3573.92495,0.12505
2035,3571.99623,0.12709
2036,3570.0675,0.12896
2037,3568.13878,0.12937
2038,3566.21006,0.12911
2039,3564.28133,0.12975
2040,3562.35261,0.13096
2041,3560.42389,0.13206
2042,3558.49516,0.13307
2043,3556.56644,0.13415
2044,3554.63771,0.13504
2045,3552.70899,0.13563
2046,3550.78027,0.13646
2047,3548.85154,0.13747
2048,3546.92282,0.13816
2049,3544.9941,0.13871
2050,3543.06537,0.13945
2051,3541.13665,0.14037
2052,3539.20793,0.14128
2053,3537.2792,0.14197
2054,3535.35048,0.14263
2055,3533.42175,0.14361
2056,3531.49303,0.14477
2057,3529.56431,0.14574
2058,3527.63558,0.14649
2059,3525.70686,0.14715
2060,3523.77814,0.14762
2061,3521.84941,0.14797
2062,3519.92069,0.14851
2063,3517.99197,0.14924
2064,3516.06324,0.15
2065,3514.13452,0.15057
2066,3512.20579,0.15095
2067,3510.27707,0.1513
2068,3508.34835,0.15199
2069,3506.41962,0.15275
2070,3504.4909,0.15308
2071,3502.56218,0.15341
2072,3500.63345,0.15429
2073,3498.70473,0.15524
2074,3496.776,0.15581
2075,3494.84728,0.15628
2076,3492.91856,0.15705
2077,3490.98983,0.15781
2078,3489.06111,0.15802
2079,3487.13239,0.15799
2080,3485.20366,0.15837
2081,3483.27494,0.15895
2082,3481.34622,0.15944
2083,3479.41749,0.15997
2084,3477.48877,0.1605
2085,3475.56004,0.16088
2086,3473.63132,0.16119
2087,3471.7026,0.1616
2088,3469.77387,0.16212
2089,3467.84515,0.16268
2090,3465.91643,0.16313
2091,3463.9877,0.16327
2092,3462.05898,0.16322
2093,3460.13026,0.16332
2094,3458.20153,0.16365
2095,3456.27281,0.16412
2096,3454.34408,0.16449
2097,3452.41536,0.1647
2098,3450.48664,0.16486
2099,3448.55791,0.16456
2100,3446.62919,0.16398
2101,3444.70047,0.16378
2102,3442.77174,0.16378
2103,3440.84302,0.16392
2104,3438.91429,0.16408
2105,3436.98557,0.16421
2106,3435.05685,0.16444
2107,3433.12812,0.16463
2108,3431.1994,0.16459
2109,3429.27068,0.16427
2110,3427.34195,0.16374
2111,3425.41323,0.16325
2112,3423.48451,0.16302
2113,3421.55578,0.16292
2114,3419.62706,0.16283
2115,3417.69833,0.16267
2116,3415.76961,0.16244
2117,3413.84089,0.16226
2118,3411.91216,0.1622
2119,3409.98344,0.16222
2120,3408.05472,0.16214
2121,3406.12599,0.16188
2122,3404.19727,0.16134
2123,3402.26855,0.16057
2124,3400.33982,0.15966
2125,3398.4111,0.15799
2126,3396.48237,0.15769
2127,3394.55365,0.15785
2128,3392.62493,0.15765
2129,3390.6962,0.15735
2130,3388.76748,0.15706
2131,3386.83876,0.15651
2132,3384.91003,0.15597
2133,3382.98131,0.15558
2134,3381.05259,0.1551
2135,3379.12386,0.15445
2136,3377.19514,0.15379
2137,3375.26641,0.15305
2138,3373.33769,0.15213
2139,3371.40897,0.15112
2140,3369.48024,0.15023
2141,3367.55152,0.14955
2142,3365.6228,0.1491
2143,3363.69407,0.14858
2144,3361.76535,0.1477
2145,3359.83662,0.1468
2146,3357.9079,0.14609
2147,3355.97918,0.14526
2148,3354.05045,0.14427
2149,3352.12173,0.14335
2150,3350.19301,0.14266
2151,3348.26428,0.14215
2152,3346.33556,0.14159
2153,3344.40684,0.14082
2154,3342.47811,0.13991
2155,3340.54939,0.13882
2156,3338.62066,0.13748
2157,3336.69194,0.13621
2158,3334.76322,0.13534
2159,3332.83449,0.13467
2160,3330.90577,0.13393
2161,3328.97705,0.133
2162,3327.04832,0.13184
2163,3325.1196,0.13059
2164,3323.19088,0.12959
2165,3321.26215,0.12871
2166,3319.33343,0.12761
2167,3317.4047,0.12631
2168,3315.47598,0.12498
2169,3313.54726,0.1237
2170,3311.61853,0.12242
2171,3309.68981,0.12104
2172,3307.76109,0.11973
2173,3305.83236,0.11847
2174,3303.90364,0.11719
2175,3301.97491,0.11599
2176,3300.04619,0.11478
2177,3298.11747,0.11331
2178,3296.18874,0.11167
2179,3294.26002,0.11012
2180,3292.3313,0.1087
2181,3290.40257,0.10725
2182,3288.47385,0.10564
2183,3286.54513,0.10396
2184,3284.6164,0.1023
2185,3282.68768,0.10056
2186,3280.75895,0.09867
2187,3278.83023,0.09667
2188,3276.90151,0.09452
2189,3274.97278,0.09245
2190,3273.04406,0.0907
2191,3271.11534,0.08902
2192,3269.18661,0.08707
2193,3267.25789,0.08505
2194,3265.32917,0.08321
2195,3263.40044,0.08146
2196,3261.47172,0.07966
2197,3259.54299,0.07768
2198,3257.61427,0.07545
2199,3255.68555,0.07302
2200,3253.75682,0.07068
2201,3251.8281,0.06871
2202,3249.89938,0.06705
2203,3247.97065,0.06516
2204,3246.04193,0.06267
2205,3244.1132,0.06014
2206,3242.18448,0.05826
2207,3240.25576,0.05679
2208,3238.32703,0.05514
2209,3236.39831,0.05319
2210,3234.46959,0.05107
2211,3232.54086,0.0487
2212,3230.61214,0.04624
2213,3228.68342,0.04395
2214,3226.75469,0.04178
2215,3224.82597,0.03956
2216,3222.89724,0.03736
2217,3220.96852,0.03535
2218,3219.0398,0.03362
2219,3217.11107,0.03202
2220,3215.18235,0.03023
2221,3213.25363,0.02823
2222,3211.3249,0.02606
2223,3209.39618,0.02397
2224,3207.46746,0.02236
2225,3205.53873,0.02107
2226,3203.61001,0.01941
2227,3201.68128,0.01717
2228,3199.75256,0.01496
2229,3197.82384,0.0134
2230,3195.89511,0.01216
2231,3193.96639,0.0105
2232,3192.03767,0.00839
2233,3190.10894,0.0064
2234,3188.18022,0.00474
2235,3186.25149,0.00332
2236,3184.32277,0.00215
2237,3182.39405,0.00092
2238,3180.46532,-0.00084
2239,3178.5366,-0.00286
2240,3176.60788,-0.00461
2241,3174.67915,-0.00614
2242,3172.75043,-0.00773
2243,3170.82171,-0.0094
2244,3168.89298,-0.01106
2245,3166.96426,-0.01251
2246,3165.03553,-0.01369
2247,3163.10681,-0.01489
2248,3161.17809,-0.01639
2249,3159.24936,-0.01806
2250,3157.32064,-0.01953
2251,3155.39192,-0.02066
2252,3153.46319,-0.0216
2253,3151.53447,-0.0225
2254,3149.60575,-0.02364
2255,3147.67702,-0.02521
2256,3145.7483,-0.02676
2257,3143.81957,-0.02802
2258,3141.89085,-0.02921
2259,3139.96213,-0.03024
2260,3138.0334,-0.03107
2261,3136.10468,-0.03203
2262,3134.17596,-0.03314
2263,3132.24723,-0.03423
2264,3130.31851,-0.0352
2265,3128.38978,-0.03605
2266,3126.46106,-0.03692
2267,3124.53234,-0.03782
2268,3122.60361,-0.03843
2269,3120.67489,-0.03874
2270,3118.74617,-0.03903
2271,3116.81744,-0.03924
2272,3114.88872,-0.0389
2273,3112.96,-0.03798
2274,3111.03127,-0.03706
2275,3109.10255,-0.03648
2276,3107.17382,-0.03586
2277,3105.2451,-0.03483
2278,3103.31638,-0.0335
2279,3101.38765,-0.03203
2280,3099.45893,-0.03047
2281,3097.53021,-0.0289
2282,3095.60148,-0.0272
2283,3093.67276,-0.02522
2284,3091.74404,-0.02319
2285,3089.81531,-0.02129
2286,3087.88659,-0.01954
2287,3085.95786,-0.01791
2288,3084.02914,-0.01619
2289,3082.10042,-0.01429
2290,3080.17169,-0.01232
2291,3078.24297,-0.01036
2292,3076.31425,-0.00843
2293,3074.38552,-0.00665
2294,3072.4568,-0.00509
2295,3070.52807,-0.00368
2296,3068.59935,-0.00236
2297,3066.67063,-0.00115
2298,3064.7419,-6e-05
2299,3062.81318,0.00101
2300,3060.88446,0.00206
2301,3058.95573,0.00294
2302,3057.02701,0.00373
2303,3055.09829,0.00461
2304,3053.16956,0.00539
2305,3051.24084,0.00582
2306,3049.31211,0.00608
2307,3047.38339,0.00645
2308,3045.45467,0.0068
2309,3043.52594,0.00681
2310,3041.59722,0.00648
2311,3039.6685,0.00602
2312,3037.73977,0.00554
2313,3035.81105,0.00503
2314,3033.88233,0.00448
2315,3031.9536,0.0039
2316,3030.02488,0.00334
2317,3028.09615,0.0028
2318,3026.16743,0.00225
2319,3024.23871,0.00173
2320,3022.30998,0.00119
2321,3020.38126,0.00053
2322,3018.45254,-5e-05
2323,3016.52381,-0.00041
2324,3014.59509,-0.00069
2325,3012.66636,-0.00096
2326,3010.73764,-0.00102
2327,3008.80892,-0.00079
2328,3006.88019,-0.00046
2329,3004.95147,-3e-05
2330,3003.02275,0.00057
2331,3001.09402,0.00133
2332,2999.1653,0.00201
2333,2997.23658,0.00061
2334,2995.30785,-0.00071
2335,2993.37913,-0.00199
2336,2991.4504,-0.00305
2337,2989.52168,-0.00217
2338,2987.59296,-0.00118
2339,2985.66423,-0.00012
2340,2983.73551,0.00096
2341,2981.80679,0.00191
2342,2979.87806,0.00276
2343,2977.94934,0.00391
2344,2976.02062,0.00537
2345,2974.09189,0.00657
2346,2972.16317,0.00746
2347,2970.23444,0.00851
2348,2968.30572,0.00974
2349,2966.377,0.01081
2350,2964.44827,0.01169
2351,2962.51955,0.01253
2352,2960.59083,0.01325
2353,2958.6621,0.01372
2354,2956.73338,0.01386
2355,2954.80466,0.01381
2356,2952.87593,0.01401
2357,2950.94721,0.01464
2358,2949.01848,0.01546
2359,2947.08976,0.01636
2360,2945.16104,0.01742
2361,2943.23231,0.01858
2362,2941.30359,0.01983
2363,2939.37487,0.02117
2364,2937.44614,0.02249
2365,2935.51742,0.02371
2366,2933.58869,0.02486
2367,2931.65997,0.02596
2368,2929.73125,0.0269
2369,2927.80252,0.02746
2370,2925.8738,0.0276
2371,2923.94508,0.02726
2372,2922.01635,0.02628
2373,2920.08763,0.02465
2374,2918.15891,0.02253
2375,2916.23018,0.0201
2376,2914.30146,0.01754
2377,2912.37273,0.01513
2378,2910.44401,0.013
2379,2908.51529,0.01104
2380,2906.58656,0.00914
2381,2904.65784,0.00739
2382,2902.72912,0.00592
2383,2900.80039,0.00463
2384,2898.87167,0.00334
2385,2896.94295,0.00205
2386,2895.01422,0.00079
2387,2893.0855,-0.00055
2388,2891.15677,-0.00196
2389,2889.22805,-0.00315
2390,2887.29933,-0.00292
2391,2885.3706,-0.00272
2392,2883.44188,-0.00261
2393,2881.51316,-0.00235
2394,2879.58443,-0.00182
2395,2877.65571,-0.00126
2396,2875.72698,-0.00064
2397,2873.79826,4e-05
2398,2871.86954,0.00063
2399,2869.94081,0.00107
2400,2868.01209,0.00146
2401,2866.08337,0.00186
2402,2864.15464,0.00239
2403,2862.22592,0.00323
2404,2860.2972,0.00437
2405,2858.36847,0.00551
2406,2856.43975,0.00642
2407,2854.51102,0.00692
2408,2852.5823,0.00686
2409,2850.65358,0.00598
2410,2848.72485,0.00437
2411,2846.79613,0.00253
2412,2844.86741,0.00081
2413,2842.93868,-0.00075
2414,2841.00996,-0.00205
2415,2839.08124,-0.00311
2416,2837.15251,-0.00397
2417,2835.22379,-0.00453
2418,2833.29506,-0.00478
2419,2831.36634,-0.00495
2420,2829.43762,-0.00522
2421,2827.50889,-0.00541
2422,2825.58017,-0.0054
2423,2823.65145,-0.00545
2424,2821.72272,-0.0057
2425,2819.794,-0.00596
2426,2817.86527,-0.00601
2427,2815.93655,-0.00595
2428,2814.00783,-0.00595
2429,2812.0791,-0.00599
2430,2810.15038,-0.006
2431,2808.22166,-0.00598
2432,2806.29293,-0.00601
2433,2804.36421,-0.00607
2434,2802.43549,-0.00609
2435,2800.50676,-0.00607
2436,2798.57804,-0.00604
2437,2796.64931,-0.00605
2438,2794.72059,-0.00609
2439,2792.79187,-0.00613
2440,2790.86314,-0.00606
2441,2788.93442,-0.00594
2442,2787.0057,-0.00579
2443,2785.07697,-0.00559
2444,2783.14825,-0.00528
2445,2781.21953,-0.00492
2446,2779.2908,-0.00456
2447,2777.36208,-0.00406
2448,2775.43335,-0.00367
2449,2773.50463,-0.00316
2450,2771.57591,-0.00247
2451,2769.64718,-0.00231
2452,2767.71846,-0.00212
2453,2765.78974,-0.00188
2454,2763.86101,-0.00164
2455,2761.93229,-0.00138
2456,2760.00356,-0.0011
2457,2758.07484,-0.00078
2458,2756.14612,-0.00043
2459,2754.21739,-0.00017
2460,2752.28867,-5e-05
2461,2750.35995,7e-05
2462,2748.43122,0.00024
2463,2746.5025,0.00037
2464,2744.57378,0.00037
2465,2742.64505,0.00026
2466,2740.71633,0.00012
2467,2738.7876,5e-05
2468,2736.85888,3e-05
2469,2734.93016,0.0
2470,2733.00143,-6e-05
2471,2731.07271,-0.00013
2472,2729.14399,-0.00029
2473,2727.21526,-0.00051
2474,2725.28654,-0.00065
2475,2723.35782,-0.00069
2476,2721.42909,-0.00079
2477,2719.50037,-0.00097
2478,2717.57164,-0.00112
2479,2715.64292,-0.00121
2480,2713.7142,-0.00125
2481,2711.78547,-0.00123
2482,2709.85675,-0.00124
2483,2707.92803,-0.00139
2484,2705.9993,-0.0016
2485,2704.07058,-0.0018
2486,2702.14185,-0.00195
2487,2700.21313,-0.00205
2488,2698.28441,-0.00209
2489,2696.35568,-0.00218
2490,2694.42696,-0.00235
2491,2692.49824,-0.00244
2492,2690.56951,-0.00243
2493,2688.64079,-0.00246
2494,2686.71207,-0.00258
2495,2684.78334,-0.00279
2496,2682.85462,-0.00297
2497,2680.92589,-0.00307
2498,2678.99717,-0.0032
2499,2677.06845,-0.00339
2500,2675.13972,-0.00352
2501,2673.211,-0.0036
2502,2671.28228,-0.00373
2503,2669.35355,-0.0039
2504,2667.42483,-0.00359
2505,2665.49611,-0.0033
2506,2663.56738,-0.00307
2507,2661.63866,-0.0028
2508,2659.70993,-0.00282
2509,2657.78121,-0.00283
2510,2655.85249,-0.0028
2511,2653.92376,-0.00279
2512,2651.99504,-0.00288
2513,2650.06632,-0.00301
2514,2648.13759,-0.00313
2515,2646.20887,-0.00322
2516,2644.28014,-0.00326
2517,2642.35142,-0.00316
2518,2640.4227,-0.00296
2519,2638.49397,-0.00285
2520,2636.56525,-0.00286
2521,2634.63653,-0.00293
2522,2632.7078,-0.00302
2523,2630.77908,-0.00302
2524,2628.85036,-0.00298
2525,2626.92163,-0.00301
2526,2624.99291,-0.00312
2527,2623.06418,-0.0033
2528,2621.13546,-0.0035
2529,2619.20674,-0.00353
2530,2617.27801,-0.00342
2531,2615.34929,-0.0034
2532,2613.42057,-0.00349
2533,2611.49184,-0.00362
2534,2609.56312,-0.0038
2535,2607.6344,-0.0039
2536,2605.70567,-0.00392
2537,2603.77695,-0.00397
2538,2601.84822,-0.00396
2539,2599.9195,-0.00385
2540,2597.99078,-0.00385
2541,2596.06205,-0.00398
2542,2594.13333,-0.00401
2543,2592.20461,-0.0039
2544,2590.27588,-0.00389
2545,2588.34716,-0.00402
2546,2586.41843,-0.00411
2547,2584.48971,-0.00405
2548,2582.56099,-0.00398
2549,2580.63226,-0.004
2550,2578.70354,-0.00404
2551,2576.77482,-0.004
2552,2574.84609,-0.00393
2553,2572.91737,-0.00388
2554,2570.98865,-0.0038
2555,2569.05992,-0.00369
2556,2567.1312,-0.00354
2557,2565.20247,-0.0034
2558,2563.27375,-0.00333
2559,2561.34503,-0.00335
2560,2559.4163,-0.00341
2561,2557.48758,-0.00332
2562,2555.55886,-0.00315
2563,2553.63013,-0.00285
2564,2551.70141,-0.00254
2565,2549.77269,-0.00257
2566,2547.84396,-0.00262
2567,2545.91524,-0.00261
2568,2543.98651,-0.00263
2569,2542.05779,-0.00268
2570,2540.12907,-0.00273
2571,2538.20034,-0.00274
2572,2536.27162,-0.00269
2573,2534.3429,-0.00261
2574,2532.41417,-0.00258
2575,2530.48545,-0.00259
2576,2528.55673,-0.00264
2577,2526.628,-0.00273
2578,2524.69928,-0.00281
2579,2522.77055,-0.00281
2580,2520.84183,-0.0028
2581,2518.91311,-0.00285
2582,2516.98438,-0.00293
2583,2515.05566,-0.003
2584,2513.12694,-0.00303
2585,2511.19821,-0.003
2586,2509.26949,-0.00293
2587,2507.34076,-0.00288
2588,2505.41204,-0.0029
2589,2503.48332,-0.00292
2590,2501.55459,-0.00294
2591,2499.62587,-0.00302
2592,2497.69715,-0.00312
2593,2495.76842,-0.00303
2594,2493.8397,-0.00278
2595,2491.91098,-0.00269
2596,2489.98225,-0.00283
2597,2488.05353,-0.00293
2598,2486.1248,-0.0029
2599,2484.19608,-0.00283
2600,2482.26736,-0.00283
2601,2480.33863,-0.00293
2602,2478.40991,-0.00305
2603,2476.48119,-0.0031
2604,2474.55246,-0.0031
2605,2472.62374,-0.00314
2606,2470.69502,-0.00322
2607,2468.76629,-0.00318
2608,2466.83757,-0.00304
2609,2464.90884,-0.00294
2610,2462.98012,-0.00291
2611,2461.0514,-0.00298
2612,2459.12267,-0.00316
2613,2457.19395,-0.00329
2614,2455.26523,-0.00323
2615,2453.3365,-0.00307
2616,2451.40778,-0.00294
2617,2449.47905,-0.00292
2618,2447.55033,-0.00292
2619,2445.62161,-0.00299
2620,2443.69288,-0.003
2621,2441.76416,-0.00288
2622,2439.83544,-0.0028
2623,2437.90671,-0.00273
2624,2435.97799,-0.00274
2625,2434.04927,-0.00291
2626,2432.12054,-0.00322
2627,2430.19182,-0.00362
2628,2428.26309,-0.00405
2629,2426.33437,-0.00419
2630,2424.40565,-0.0039
2631,2422.47692,-0.00353
2632,2420.5482,-0.00337
2633,2418.61948,-0.00332
2634,2416.69075,-0.00329
2635,2414.76203,-0.00323
2636,2412.83331,-0.00317
2637,2410.90458,-0.00317
2638,2408.97586,-0.00317
2639,2407.04713,-0.00318
2640,2405.11841,-0.00323
2641,2403.18969,-0.0032
2642,2401.26096,-0.0031
2643,2399.33224,-0.00302
2644,2397.40352,-0.00301
2645,2395.47479,-0.00303
2646,2393.54607,-0.00302
2647,2391.61734,-0.00295
2648,2389.68862,-0.00283
2649,2387.7599,-0.00279
2650,2385.83117,-0.0028
2651,2383.90245,-0.00281
2652,2381.97373,-0.00274
2653,2380.045,-0.0026
2654,2378.11628,-0.00244
2655,2376.18756,-0.00244
2656,2374.25883,-0.0026
2657,2372.33011,-0.00272
2658,2370.40138,-0.00274
2659,2368.47266,-0.00272
2660,2366.54394,-0.00263
2661,2364.61521,-0.00255
2662,2362.68649,-0.00258
2663,2360.75777,-0.00268
2664,2358.82904,-0.00291
2665,2356.90032,-0.00327
2666,2354.9716,-0.00359
2667,2353.04287,-0.00353
2668,2351.11415,-0.0028
2669,2349.18542,-0.00201
2670,2347.2567,-0.00202
2671,2345.32798,-0.00255
2672,2343.39925,-0.00288
2673,2341.47053,-0.00299
2674,2339.54181,-0.00308
2675,2337.61308,-0.00318
2676,2335.68436,-0.00322
2677,2333.75563,-0.00315
2678,2331.82691,-0.00306
2679,2329.89819,-0.00303
2680,2327.96946,-0.00307
2681,2326.04074,-0.00318
2682,2324.11202,-0.00337
2683,2322.18329,-0.00357
2684,2320.25457,-0.00368
2685,2318.32585,-0.00365
2686,2316.39712,-0.00357
2687,2314.4684,-0.00352
2688,2312.53967,-0.00345
2689,2310.61095,-0.00336
2690,2308.68223,-0.00325
2691,2306.7535,-0.00316
2692,2304.82478,-0.00315
2693,2302.89606,-0.00325
2694,2300.96733,-0.00336
2695,2299.03861,-0.00341
2696,2297.10989,-0.0034
2697,2295.18116,-0.00339
2698,2293.25244,-0.00335
2699,2291.32371,-0.00327
2700,2289.39499,-0.00319
2701,2287.46627,-0.00317
2702,2285.53754,-0.00316
2703,2283.60882,-0.00312
2704,2281.6801,-0.00307
2705,2279.75137,-0.0031
2706,2277.82265,-0.00323
2707,2275.89392,-0.00335
2708,2273.9652,-0.00336
2709,2272.03648,-0.00331
2710,2270.10775,-0.00325
2711,2268.17903,-0.00314
2712,2266.25031,-0.003
2713,2264.32158,-0.00291
2714,2262.39286,-0.00286
2715,2260.46414,-0.00284
2716,2258.53541,-0.00284
2717,2256.60669,-0.0029
2718,2254.67796,-0.00293
2719,2252.74924,-0.00288
2720,2250.82052,-0.00278
2721,2248.89179,-0.00277
2722,2246.96307,-0.0027
2723,2245.03435,-0.00259
2724,2243.10562,-0.00244
2725,2241.1769,-0.00231
2726,2239.24818,-0.00221
2727,2237.31945,-0.00215
2728,2235.39073,-0.00209
2729,2233.462,-0.00205
2730,2231.53328,-0.00207
2731,2229.60456,-0.00204
2732,2227.67583,-0.00191
2733,2225.74711,-0.00188
2734,2223.81839,-0.00188
2735,2221.88966,-0.00184
2736,2219.96094,-0.00189
2737,2218.03221,-0.00188
2738,2216.10349,-0.00191
2739,2214.17477,-0.00205
2740,2212.24604,-0.0022
2741,2210.31732,-0.00228
2742,2208.3886,-0.00237
2743,2206.45987,-0.00247
2744,2204.53115,-0.00256
2745,2202.60243,-0.00262
2746,2200.6737,-0.00262
2747,2198.74498,-0.00261
2748,2196.81625,-0.0027
2749,2194.88753,-0.00286
2750,2192.95881,-0.00296
2751,2191.03008,-0.00299
2752,2189.10136,-0.00298
2753,2187.17264,-0.00299
2754,2185.24391,-0.00306
2755,2183.31519,-0.0032
2756,2181.38647,-0.00335
2757,2179.45774,-0.0034
2758,2177.52902,-0.00328
2759,2175.60029,-0.00316
2760,2173.67157,-0.00317
2761,2171.74285,-0.00324
2762,2169.81412,-0.00329
2763,2167.8854,-0.00327
2764,2165.95668,-0.00323
2765,2164.02795,-0.00322
2766,2162.09923,-0.00317
2767,2160.1705,-0.00307
2768,2158.24178,-0.00304
2769,2156.31306,-0.00303
2770,2154.38433,-0.00294
2771,2152.45561,-0.00284
2772,2150.52689,-0.00282
2773,2148.59816,-0.0028
2774,2146.66944,-0.00273
2775,2144.74072,-0.00266
2776,2142.81199,-0.0027
2777,2140.88327,-0.00277
2778,2138.95454,-0.00278
2779,2137.02582,-0.00265
2780,2135.0971,-0.00242
2781,2133.16837,-0.00231
2782,2131.23965,-0.00236
2783,2129.31093,-0.00239
2784,2127.3822,-0.00236
2785,2125.45348,-0.00238
2786,2123.52476,-0.0024
2787,2121.59603,-0.00232
2788,2119.66731,-0.00224
2789,2117.73858,-0.00238
2790,2115.80986,-0.00252
2791,2113.88114,-0.00265
2792,2111.95241,-0.00276
2793,2110.02369,-0.00294
2794,2108.09497,-0.00321
2795,2106.16624,-0.00356
2796,2104.23752,-0.00384
2797,2102.3088,-0.00402
2798,2100.38007,-0.00421
2799,2098.45135,-0.00441
2800,2096.52262,-0.00461
2801,2094.5939,-0.00486
2802,2092.66518,-0.00516
2803,2090.73645,-0.00547
2804,2088.80773,-0.00582
2805,2086.87901,-0.00623
2806,2084.95028,-0.0067
2807,2083.02156,-0.00727
2808,2081.09283,-0.00792
2809,2079.16411,-0.00854
2810,2077.23539,-0.00906
2811,2075.30666,-0.0095
2812,2073.37794,-0.00984
2813,2071.44922,-0.01014
2814,2069.52049,-0.01041
2815,2067.59177,-0.01071
2816,2065.66305,-0.01114
2817,2063.73432,-0.01143
2818,2061.8056,-0.01144
2819,2059.87687,-0.01128
2820,2057.94815,-0.01095
2821,2056.01943,-0.01054
2822,2054.0907,-0.01021
2823,2052.16198,-0.00988
2824,2050.23326,-0.0093
2825,2048.30453,-0.00844
2826,2046.37581,-0.00751
2827,2044.44709,-0.00667
2828,2042.51836,-0.006
2829,2040.58964,-0.00547
2830,2038.66091,-0.00498
2831,2036.73219,-0.00452
2832,2034.80347,-0.00408
2833,2032.87474,-0.00372
2834,2030.94602,-0.00355
2835,2029.0173,-0.00351
2836,2027.08857,-0.00341
2837,2025.15985,-0.00325
2838,2023.23112,-0.00305
2839,2021.3024,-0.0027
2840,2019.37368,-0.00227
2841,2017.44495,-0.00197
2842,2015.51623,-0.00171
2843,2013.58751,-0.00154
2844,2011.65878,-0.00149
2845,2009.73006,-0.00141
2846,2007.80134,-0.00132
2847,2005.87261,-0.00126
2848,2003.94389,-0.00112
2849,2002.01516,-0.00078
2850,2000.08644,-0.00046
2851,1998.15772,-0.00027
2852,1996.22899,-3e-05
2853,1994.30027,0.00011
2854,1992.37155,1e-05
2855,1990.44282,0.00013
2856,1988.5141,0.00034
2857,1986.58538,0.00043
2858,1984.65665,0.00057
2859,1982.72793,0.00073
2860,1980.7992,0.00083
2861,1978.87048,0.00083
2862,1976.94176,0.00078
2863,1975.01303,0.00076
2864,1973.08431,0.00086
2865,1971.15559,0.00104
2866,1969.22686,0.001
2867,1967.29814,0.00078
2868,1965.36941,0.00075
2869,1963.44069,0.00077
2870,1961.51197,0.00065
2871,1959.58324,0.00055
2872,1957.65452,0.00053
2873,1955.7258,0.00055
2874,1953.79707,0.00056
2875,1951.86835,0.00053
2876,1949.93963,0.00045
2877,1948.0109,0.00042
2878,1946.08218,0.00051
2879,1944.15345,0.00032
2880,1942.22473,3e-05
2881,1940.29601,0.00015
2882,1938.36728,0.00027
2883,1936.43856,0.00021
2884,1934.50984,0.00016
2885,1932.58111,0.00016
2886,1930.65239,0.00023
2887,1928.72367,0.0004
2888,1926.79494,0.0005
2889,1924.86622,0.00034
2890,1922.93749,0.00011
2891,1921.00877,0.00019
2892,1919.08005,-2e-05
2893,1917.15132,-0.00016
2894,1915.2226,0.00016
2895,1913.29388,0.00048
2896,1911.36515,0.00076
2897,1909.43643,0.00107
2898,1907.5077,0.00145
2899,1905.57898,0.00178
2900,1903.65026,0.00208
2901,1901.72153,0.00249
2902,1899.79281,0.00306
2903,1897.86409,0.00362
2904,1895.93536,0.00402
2905,1894.00664,0.00456
2906,1892.07792,0.00508
2907,1890.14919,0.00523
2908,1888.22047,0.00553
2909,1886.29174,0.00601
2910,1884.36302,0.00627
2911,1882.4343,0.00643
2912,1880.50557,0.00654
2913,1878.57685,0.00655
2914,1876.64813,0.00666
2915,1874.7194,0.00728
2916,1872.79068,0.00822
2917,1870.86196,0.0086
2918,1868.93323,0.00823
2919,1867.00451,0.00802
2920,1865.07578,0.00805
2921,1863.14706,0.0079
2922,1861.21834,0.0076
2923,1859.28961,0.00718
2924,1857.36089,0.00663
2925,1855.43217,0.00606
2926,1853.50344,0.00555
2927,1851.57472,0.00501
2928,1849.64599,0.00454
2929,1847.71727,0.004
2930,1845.78855,0.00271
2931,1843.85982,0.00123
2932,1841.9311,0.0008
2933,1840.00238,0.00057
2934,1838.07365,-0.00013
2935,1836.14493,-0.00067
2936,1834.21621,-0.00063
2937,1832.28748,-0.0006
2938,1830.35876,-0.001
2939,1828.43003,-0.00114
2940,1826.50131,-0.00136
2941,1824.57259,-0.00188
2942,1822.64386,-0.00194
2943,1820.71514,-0.00194
2944,1818.78642,-0.00216
2945,1816.85769,-0.0021
2946,1814.92897,-0.00158
2947,1813.00025,-0.00125
2948,1811.07152,-0.00137
2949,1809.1428,-0.00141
2950,1807.21407,-0.00116
2951,1805.28535,-0.00087
2952,1803.35663,-0.00092
2953,1801.4279,-0.00126
2954,1799.49918,-0.00108
2955,1797.57046,-0.00018
2956,1795.64173,0.00065
2957,1793.71301,0.00051
2958,1791.78428,-7e-05
2959,1789.85556,0.00014
2960,1787.92684,0.00045
2961,1785.99811,0.00046
2962,1784.06939,0.0009
2963,1782.14067,0.0015
2964,1780.21194,0.00187
2965,1778.28322,0.00262
2966,1776.3545,0.00371
2967,1774.42577,0.00418
2968,1772.49705,0.00372
2969,1770.56832,0.00339
2970,1768.6396,0.00336
2971,1766.71088,0.00395
2972,1764.78215,0.00494
2973,1762.85343,0.00537
2974,1760.92471,0.00606
2975,1758.99598,0.00711
2976,1757.06726,0.00806
2977,1755.13854,0.00978
2978,1753.20981,0.0116
2979,1751.28109,0.01283
2980,1749.35236,0.0142
2981,1747.42364,0.01581
2982,1745.49492,0.01728
2983,1743.56619,0.01853
2984,1741.63747,0.01949
2985,1739.70875,0.02066
2986,1737.78002,0.02258
2987,1735.8513,0.02323
2988,1733.92257,0.02278
2989,1731.99385,0.02342
2990,1730.06513,0.02374
2991,1728.1364,0.02365
2992,1726.20768,0.02378
2993,1724.27896,0.02418
2994,1722.35023,0.02538
2995,1720.42151,0.02649
2996,1718.49279,0.0261
2997,1716.56406,0.02506
2998,1714.63534,0.02449
2999,1712.70661,0.02443
3000,1710.77789,0.02484
3001,1708.84917,0.02556
3002,1706.92044,0.0263
3003,1704.99172,0.0277
3004,1703.063,0.0294
3005,1701.13427,0.03008
3006,1699.20555,0.03147
3007,1697.27683,0.03293
3008,1695.3481,0.03396
3009,1693.41938,0.03638
3010,1691.49065,0.03882
3011,1689.56193,0.04143
3012,1687.63321,0.04456
3013,1685.70448,0.0462
3014,1683.77576,0.04711
3015,1681.84704,0.0495
3016,1679.91831,0.05183
3017,1677.98959,0.05348
3018,1676.06087,0.05485
3019,1674.13214,0.05716
3020,1672.20342,0.05948
3021,1670.27469,0.06039
3022,1668.34597,0.0619
3023,1666.41725,0.06414
3024,1664.48852,0.06507
3025,1662.5598,0.06523
3026,1660.63108,0.06603
3027,1658.70235,0.06725
3028,1656.77363,0.06795
3029,1654.8449,0.06618
3030,1652.91618,0.06352
3031,1650.98746,0.06435
3032,1649.05873,0.06442
3033,1647.13001,0.06235
3034,1645.20129,0.06141
3035,1643.27256,0.0616
3036,1641.34384,0.06177
3037,1639.41512,0.06179
3038,1637.48639,0.05991
3039,1635.55767,0.0562
3040,1633.62894,0.05394
3041,1631.70022,0.0526
3042,1629.7715,0.05042
3043,1627.84277,0.04796
3044,1625.91405,0.04532
3045,1623.98533,0.04162
3046,1622.0566,0.03849
3047,1620.12788,0.03649
3048,1618.19916,0.03307
3049,1616.27043,0.02874
3050,1614.34171,0.0258
3051,1612.41298,0.02329
3052,1610.48426,0.0202
3053,1608.55554,0.01688
3054,1606.62681,0.01361
3055,1604.69809,0.01033
3056,1602.76937,0.00706
3057,1600.84064,0.00419
3058,1598.91192,0.00203
3059,1596.98319,0.00048
3060,1595.05447,-0.00072
3061,1593.12575,-0.00172
3062,1591.19702,-0.00266
3063,1589.2683,-0.0036
3064,1587.33958,-0.0043
3065,1585.41085,-0.00454
3066,1583.48213,-0.00411
3067,1581.55341,-0.00281
3068,1579.62468,-0.00118
3069,1577.69596,-0.00063
3070,1575.76723,-6e-05
3071,1573.83851,0.00203
3072,1571.90979,0.00329
3073,1569.98106,0.00345
3074,1568.05234,0.00495
3075,1566.12362,0.00736
3076,1564.19489,0.01029
3077,1562.26617,0.01328
3078,1560.33745,0.01445
3079,1558.40872,0.01586
3080,1556.48,0.01913
3081,1554.55127,0.02088
3082,1552.62255,0.02173
3083,1550.69383,0.02269
3084,1548.7651,0.02425
3085,1546.83638,0.02621
3086,1544.90766,0.028
3087,1542.97893,0.0293
3088,1541.05021,0.02851
3089,1539.12148,0.02739
3090,1537.19276,0.02806
3091,1535.26404,0.02755
3092,1533.33531,0.02602
3093,1531.40659,0.02564
3094,1529.47787,0.02523
3095,1527.54914,0.02406
3096,1525.62042,0.02323
3097,1523.6917,0.02213
3098,1521.76297,0.0199
3099,1519.83425,0.01806
3100,1517.90552,0.01595
3101,1515.9768,0.01332
3102,1514.04808,0.01139
3103,1512.11935,0.01023
3104,1510.19063,0.00911
3105,1508.26191,0.00547
3106,1506.33318,0.00026
3107,1504.40446,-0.00204
3108,1502.47574,-0.00306
3109,1500.54701,-0.00479
3110,1498.61829,-0.00711
3111,1496.68956,-0.00934
3112,1494.76084,-0.01008
3113,1492.83212,-0.01026
3114,1490.90339,-0.01153
3115,1488.97467,-0.01335
3116,1487.04595,-0.01462
3117,1485.11722,-0.01527
3118,1483.1885,-0.01572
3119,1481.25977,-0.01575
3120,1479.33105,-0.01488
3121,1477.40233,-0.01351
3122,1475.4736,-0.01217
3123,1473.54488,-0.0113
3124,1471.61616,-0.00993
3125,1469.68743,-0.00786
3126,1467.75871,-0.00701
3127,1465.82999,-0.00746
3128,1463.90126,-0.00722
3129,1461.97254,-0.00578
3130,1460.04381,-0.00536
3131,1458.11509,-0.00709
3132,1456.18637,-0.00863
3133,1454.25764,-0.00882
3134,1452.32892,-0.00946
3135,1450.4002,-0.01073
3136,1448.47147,-0.01231
3137,1446.54275,-0.01386
3138,1444.61403,-0.01549
3139,1442.6853,-0.0173
3140,1440.75658,-0.01889
3141,1438.82785,-0.02134
3142,1436.89913,-0.02506
3143,1434.97041,-0.02783
3144,1433.04168,-0.03003
3145,1431.11296,-0.03349
3146,1429.18424,-0.03796
3147,1427.25551,-0.043
3148,1425.32679,-0.04925
3149,1423.39806,-0.05643
3150,1421.46934,-0.06484
3151,1419.54062,-0.07602
3152,1417.61189,-0.08809
3153,1415.68317,-0.09844
3154,1413.75445,-0.10825
3155,1411.82572,-0.11882
3156,1409.897,-0.12961
3157,1407.96828,-0.13982
3158,1406.03955,-0.14956
3159,1404.11083,-0.15779
3160,1402.1821,-0.16288
3161,1400.25338,-0.16484
3162,1398.32466,-0.1632
3163,1396.39593,-0.15778
3164,1394.46721,-0.14908
3165,1392.53849,-0.13843
3166,1390.60976,-0.12897
3167,1388.68104,-0.12309
3168,1386.75232,-0.11973
3169,1384.82359,-0.1136
3170,1382.89487,-0.1006
3171,1380.96614,-0.08309
3172,1379.03742,-0.06688
3173,1377.1087,-0.05474
3174,1375.17997,-0.04568
3175,1373.25125,-0.03794
3176,1371.32253,-0.03135
3177,1369.3938,-0.02613
3178,1367.46508,-0.0216
3179,1365.53635,-0.01788
3180,1363.60763,-0.01535
3181,1361.67891,-0.01329
3182,1359.75018,-0.0113
3183,1357.82146,-0.00969
3184,1355.89274,-0.00829
3185,1353.96401,-0.0067
3186,1352.03529,-0.00491
3187,1350.10657,-0.00323
3188,1348.17784,-0.0019
3189,1346.24912,-0.00077
3190,1344.32039,0.00046
3191,1342.39167,0.00148
3192,1340.46295,0.00203
3193,1338.53422,0.00273
3194,1336.6055,0.00398
3195,1334.67678,0.00545
3196,1332.74805,0.00692
3197,1330.81933,0.00804
3198,1328.89061,0.00826
3199,1326.96188,0.00802
3200,1325.03316,0.00763
3201,1323.10443,0.00758
3202,1321.17571,0.00825
3203,1319.24699,0.00943
3204,1317.31826,0.01068
3205,1315.38954,0.01179
3206,1313.46082,0.01295
3207,1311.53209,0.01446
3208,1309.60337,0.01607
3209,1307.67464,0.01751
3210,1305.74592,0.01893
3211,1303.8172,0.02042
3212,1301.88847,0.02198
3213,1299.95975,0.02357
3214,1298.03103,0.02517
3215,1296.1023,0.02679
3216,1294.17358,0.02836
3217,1292.24486,0.02994
3218,1290.31613,0.03158
3219,1288.38741,0.03318
3220,1286.45868,0.03491
3221,1284.52996,0.03726
3222,1282.60124,0.04041
3223,1280.67251,0.04404
3224,1278.74379,0.04783
3225,1276.81507,0.05177
3226,1274.88634,0.05589
3227,1272.95762,0.06032
3228,1271.0289,0.0655
3229,1269.10017,0.07159
3230,1267.17145,0.07833
3231,1265.24272,0.08564
3232,1263.314,0.09372
3233,1261.38528,0.10274
3234,1259.45655,0.11262
3235,1257.52783,0.12316
3236,1255.59911,0.13447
3237,1253.67038,0.1466
3238,1251.74166,0.15915
3239,1249.81294,0.17168
3240,1247.88421,0.18388
3241,1245.95549,0.1955
3242,1244.02676,0.20649
3243,1242.09804,0.21643
3244,1240.16932,0.22486
3245,1238.24059,0.23206
3246,1236.31187,0.23835
3247,1234.38315,0.24382
3248,1232.45442,0.24871
3249,1230.5257,0.25312
3250,1228.59697,0.25701
3251,1226.66825,0.26054
3252,1224.73953,0.26371
3253,1222.8108,0.26614
3254,1220.88208,0.26793
3255,1218.95336,0.26966
3256,1217.02463,0.27146
3257,1215.09591,0.27314
3258,1213.16719,0.27481
3259,1211.23846,0.27664
3260,1209.30974,0.27824
3261,1207.38101,0.27925
3262,1205.45229,0.27991
3263,1203.52357,0.28073
3264,1201.59484,0.28185
3265,1199.66612,0.28314
3266,1197.7374,0.28441
3267,1195.80867,0.28554
3268,1193.87995,0.28641
3269,1191.95123,0.28723
3270,1190.0225,0.28838
3271,1188.09378,0.29009
3272,1186.16505,0.29218
3273,1184.23633,0.29446
3274,1182.30761,0.29679
3275,1180.37888,0.29879
3276,1178.45016,0.30035
3277,1176.52144,0.30178
3278,1174.59271,0.30347
3279,1172.66399,0.3053
3280,1170.73526,0.30683
3281,1168.80654,0.3082
3282,1166.87782,0.30975
3283,1164.94909,0.31121
3284,1163.02037,0.31234
3285,1161.09165,0.31345
3286,1159.16292,0.31446
3287,1157.2342,0.31515
3288,1155.30548,0.31566
3289,1153.37675,0.31612
3290,1151.44803,0.31652
3291,1149.5193,0.31706
3292,1147.59058,0.31803
3293,1145.66186,0.31946
3294,1143.73313,0.32106
3295,1141.80441,0.32225
3296,1139.87569,0.3226
3297,1137.94696,0.32218
3298,1136.01824,0.32117
3299,1134.08952,0.32016
3300,1132.16079,0.32022
3301,1130.23207,0.32183
3302,1128.30334,0.3239
3303,1126.37462,0.32522
3304,1124.4459,0.32611
3305,1122.51717,0.32697
3306,1120.58845,0.32755
3307,1118.65973,0.32871
3308,1116.731,0.33183
3309,1114.80228,0.33654
3310,1112.87355,0.34173
3311,1110.94483,0.34727
3312,1109.01611,0.35371
3313,1107.08738,0.36107
3314,1105.15866,0.36836
3315,1103.22994,0.3749
3316,1101.30121,0.38093
3317,1099.37249,0.38651
3318,1097.44377,0.39108
3319,1095.51504,0.39405
3320,1093.58632,0.39566
3321,1091.65759,0.3967
3322,1089.72887,0.39786
3323,1087.80015,0.3989
3324,1085.87142,0.39909
3325,1083.9427,0.39858
3326,1082.01398,0.39802
3327,1080.08525,0.39763
3328,1078.15653,0.39691
3329,1076.22781,0.39543
3330,1074.29908,0.39358
3331,1072.37036,0.39198
3332,1070.44163,0.3904
3333,1068.51291,0.38834
3334,1066.58419,0.38571
3335,1064.65546,0.38285
3336,1062.72674,0.38009
3337,1060.79802,0.37701
3338,1058.86929,0.37318
3339,1056.94057,0.36826
3340,1055.01184,0.36201
3341,1053.08312,0.35534
3342,1051.1544,0.34904
3343,1049.22567,0.34266
3344,1047.29695,0.33555
3345,1045.36823,0.32815
3346,1043.4395,0.32107
3347,1041.51078,0.31393
3348,1039.58206,0.30625
3349,1037.65333,0.29803
3350,1035.72461,0.28934
3351,1033.79588,0.28061
3352,1031.86716,0.27299
3353,1029.93844,0.26662
3354,1028.00971,0.26061
3355,1026.08099,0.25468
3356,1024.15227,0.24882
3357,1022.22354,0.24285
3358,1020.29482,0.23669
3359,1018.3661,0.23072
3360,1016.43737,0.22551
3361,1014.50865,0.22084
3362,1012.57992,0.21595
3363,1010.6512,0.21084
3364,1008.72248,0.20609
3365,1006.79375,0.20177
3366,1004.86503,0.19779
3367,1002.93631,0.1942
3368,1001.00758,0.19085
3369,999.07886,0.18751
3370,997.15013,0.18381
3371,995.22141,0.17947
3372,993.29269,0.17427
3373,991.36396,0.16855
3374,989.43524,0.16383
3375,987.50652,0.16091
3376,985.57779,0.15873
3377,983.64907,0.1566
3378,981.72035,0.1551
3379,979.79162,0.15439
3380,977.8629,0.15373
3381,975.93417,0.15381
3382,974.00545,0.1538
3383,972.07673,0.15354
3384,970.148,0.15302
3385,968.21928,0.15231
3386,966.29056,0.1517
3387,964.36183,0.15154
3388,962.43311,0.1517
3389,960.50439,0.15179
3390,958.57566,0.15157
3391,956.64694,0.15088
3392,954.71821,0.14972
3393,952.78949,0.14806
3394,950.86077,0.14584
3395,948.93204,0.14336
3396,947.00332,0.14077
3397,945.0746,0.13796
3398,943.14587,0.13494
3399,941.21715,0.13166
3400,939.28842,0.12812
3401,937.3597,0.12455
3402,935.43098,0.12087
3403,933.50225,0.11682
3404,931.57353,0.11273
3405,929.64481,0.10916
3406,927.71608,0.10597
3407,925.78736,0.10288
3408,923.85864,0.1001
3409,921.92991,0.09755
3410,920.00119,0.09451
3411,918.07246,0.09071
3412,916.14374,0.08673
3413,914.21502,0.0828
3414,912.28629,0.07856
3415,910.35757,0.07435
3416,908.42885,0.07061
3417,906.50012,0.06677
3418,904.5714,0.06244
3419,902.64268,0.05796
3420,900.71395,0.05328
3421,898.78523,0.04836
3422,896.8565,0.04379
3423,894.92778,0.03961
3424,892.99906,0.03544
3425,891.07033,0.03132
3426,889.14161,0.02717
3427,887.21289,0.0227
3428,885.28416,0.01807
3429,883.35544,0.01381
3430,881.42671,0.0103
3431,879.49799,0.00728
3432,877.56927,0.00428
3433,875.64054,0.00112
3434,873.71182,-0.00201
3435,871.7831,-0.00504
3436,869.85437,-0.00783
3437,867.92565,-0.01015
3438,865.99693,-0.01248
3439,864.0682,-0.01539
3440,862.13948,-0.01849
3441,860.21075,-0.02125
3442,858.28203,-0.02339
3443,856.35331,-0.02495
3444,854.42458,-0.02618
3445,852.49586,-0.02678
3446,850.56714,-0.02698
3447,848.63841,-0.02748
3448,846.70969,-0.02757
3449,844.78097,-0.02621
3450,842.85224,-0.0241
3451,840.92352,-0.02205
3452,838.99479,-0.01963
3453,837.06607,-0.01648
3454,835.13735,-0.01281
3455,833.20862,-0.00854
3456,831.2799,-0.00382
3457,829.35118,0.0005
3458,827.42245,0.00415
3459,825.49373,0.00772
3460,823.56501,0.01153
3461,821.63628,0.01529
3462,819.70756,0.0189
3463,817.77883,0.02271
3464,815.85011,0.02706
3465,813.92139,0.03164
3466,811.99266,0.03557
3467,810.06394,0.03851
3468,808.13522,0.04143
3469,806.20649,0.04526
3470,804.27777,0.04922
3471,802.34904,0.05179
3472,800.42032,0.05258
3473,798.4916,0.05241
3474,796.56287,0.0519
3475,794.63415,0.051
3476,792.70543,0.04978
3477,790.7767,0.04811
3478,788.84798,0.0454
3479,786.91926,0.04181
3480,784.99053,0.03793
3481,783.06181,0.03391
3482,781.13308,0.02986
3483,779.20436,0.02585
3484,777.27564,0.02157
3485,775.34691,0.0168
3486,773.41819,0.01167
3487,771.48947,0.00694
3488,769.56074,0.00396
3489,767.63202,0.00272
3490,765.7033,0.00227
3491,763.77457,0.00142
3492,761.84585,0.00016
3493,759.91712,-0.00124
3494,757.9884,-0.00215
3495,756.05968,-0.00269
3496,754.13095,-0.00372
3497,752.20223,-0.00516
3498,750.27351,-0.00596
3499,748.34478,-0.00621
3500,746.41606,-0.00671
3501,744.48733,-0.00752
3502,742.55861,-0.00827
3503,740.62989,-0.00876
3504,738.70116,-0.00919
3505,736.77244,-0.00973
3506,734.84372,-0.0101
3507,732.91499,-0.01017
3508,730.98627,-0.00993
3509,729.05755,-0.00942
3510,727.12882,-0.009
3511,725.2001,-0.00893
3512,723.27137,-0.00941
3513,721.34265,-0.00996
3514,719.41393,-0.0104
3515,717.4852,-0.01085
3516,715.55648,-0.01145
3517,713.62776,-0.01175
3518,711.69903,-0.01127
3519,709.77031,-0.01028
3520,707.84159,-0.00932
3521,705.91286,-0.00848
3522,703.98414,-0.00766
3523,702.05541,-0.00662
3524,700.12669,-0.00512
3525,698.19797,-0.00329
3526,696.26924,-0.00173
3527,694.34052,-0.00104
3528,692.4118,-0.00116
3529,690.48307,-0.00161
3530,688.55435,-0.00192
3531,686.62562,-0.00189
3532,684.6969,-0.00221
3533,682.76818,-0.00272
3534,680.83945,-0.00324
3535,678.91073,-0.00463
3536,676.98201,-0.00598
3537,675.05328,-0.00659
3538,673.12456,-0.00646
3539,671.19584,-0.00721
3540,669.26711,-0.00986
3541,667.33839,-0.01087
3542,665.40966,-0.00902
3543,663.48094,-0.00838
3544,661.55222,-0.00979
3545,659.62349,-0.01149
3546,657.69477,-0.01298
3547,655.76605,-0.01387
3548,653.83732,-0.01326
3549,651.9086,-0.01157
3550,649.97988,-0.01046
3551,648.05115,-0.01059
3552,646.12243,-0.01114
3553,644.1937,-0.01123
3554,642.26498,-0.01066
3555,640.33626,-0.00957
3556,638.40753,-0.00829
3557,636.47881,-0.00759
3558,634.55009,-0.00841
3559,632.62136,-0.01082
3560,630.69264,-0.01324
3561,628.76391,-0.0143
3562,626.83519,-0.01427
3563,624.90647,-0.01516
3564,622.97774,-0.01687
3565,621.04902,-0.01871
3566,619.1203,-0.02047
3567,617.19157,-0.0212
3568,615.26285,-0.01968
3569,613.33413,-0.01651
3570,611.4054,-0.01335
3571,609.47668,-0.01043
3572,607.54795,-0.00795
3573,605.61923,-0.0071
3574,603.69051,-0.00744
3575,601.76178,-0.00717
3576,599.83306,-0.00537
3577,597.90434,-0.00272
3578,595.97561,-0.00065
3579,594.04689,0.00042
3580,592.11817,0.0014
3581,590.18944,0.00247
3582,588.26072,0.00274
3583,586.33199,0.00305
3584,584.40327,0.00419
3585,582.47455,0.00471
3586,580.54582,0.00378
3587,578.6171,0.0032
3588,576.68838,0.0065
3589,574.75965,0.01103
3590,572.83093,0.01544
3591,570.9022,0.01853
3592,568.97348,0.0161
3593,567.04476,0.01265
3594,565.11603,0.00969
3595,563.18731,0.00699
3596,561.25859,0.00498
3597,559.32986,0.00386
3598,557.40114,0.00244
3599,555.47242,0.00037
3600,553.54369,-0.00089
3601,551.61497,-0.00158
3602,549.68624,-0.00338
3603,547.75752,-0.00562
3604,545.8288,-0.00674
3605,543.90007,-0.00704
3606,541.97135,-0.00761
3607,540.04263,-0.00919
3608,538.1139,-0.01179
3609,536.18518,-0.01396
3610,534.25646,-0.01487
3611,532.32773,-0.01628
3612,530.39901,-0.01935
3613,528.47028,-0.0228
3614,526.54156,-0.0255
3615,524.61284,-0.02788
3616,522.68411,-0.03144
3617,520.75539,-0.0362
3618,518.82667,-0.03985
3619,516.89794,-0.04104
3620,514.96922,-0.04108
3621,513.04049,-0.04113
3622,511.11177,-0.0408
3623,509.18305,-0.03959
3624,507.25432,-0.03729
3625,505.3256,-0.03479
3626,503.39688,-0.03353
3627,501.46815,-0.03274
3628,499.53943,-0.03053
3629,497.61071,-0.02634
3630,495.68198,-0.02119
3631,493.75326,-0.01557
3632,491.82453,-0.0086
3633,489.89581,-0.00156
3634,487.96709,0.00346
3635,486.03836,0.0079
3636,484.10964,0.01462
3637,482.18092,0.02311
3638,480.25219,0.02952
3639,478.32347,0.03177
3640,476.39475,0.03222
3641,474.46602,0.03472
3642,472.5373,0.04093
3643,470.60857,0.04782
3644,468.67985,0.05088
3645,466.75113,0.05388
3646,464.8224,0.0654
3647,462.89368,0.07895
3648,460.96496,0.091
3649,459.03623,0.10213
3650,457.10751,0.11215
3651,455.17878,0.12085
3652,453.25006,0.13003
3653,451.32134,0.13837
3654,449.39261,0.13894
3655,447.46389,0.13649
3656,445.53517,0.13462
3657,443.60644,0.13288
3658,441.67772,0.13128
3659,439.749,0.12915
3660,437.82027,0.12418
3661,435.89155,0.11843
3662,433.96282,0.11539
3663,432.0341,0.11162
3664,430.10538,0.10365
3665,428.17665,0.09531
3666,426.24793,0.09114
3667,424.31921,0.09081
3668,422.39048,0.09036
3669,420.46176,0.08534
3670,418.53304,0.07665
3671,416.60431,0.06852
3672,414.67559,0.05964
3673,412.74686,0.05096
3674,410.81814,0.04738
3675,408.88942,0.04845
3676,406.96069,0.0492
3677,405.03197,0.0494
3678,403.10325,0.05047
3679,401.17452,0.04477
3680,399.2458,0.02446
3681,397.31708,0.00307
3682,395.38835,-0.00135
3683,393.45963,0.00097
3684,391.5309,-0.00353
3685,389.60218,-0.0094
3686,387.67346,-0.00992
3687,385.74473,-0.0131
3688,383.81601,-0.02347
3689,381.88729,-0.02813
3690,379.95856,-0.02798
3691,378.02984,-0.05736
3692,376.10111,-0.11853
3693,374.17239,-0.12066
3694,372.24367,-0.02091
3695,370.31494,0.08112
3696,368.38622,0.12339
